Time (ms),Main Avg Current (mA),Main Avg Power (mW),Main Avg Voltage (V),USB Avg Current (mA),USB Avg Power (mW),USB Avg Voltage (V)
0.00,-0.013,0,0,405.745,1959.7483,4.83
200.00,-0.028,0,0,405.264,1959.0463,4.834
400.00,0.018,0,0,405.582,1958.9611,4.83
600.00,-0.012,0,0,405.434,1959.057,4.832
800.00,0.016,0,0,405.585,1960.5979,4.834
1000.00,-0.01,0,0,405.72,1960.439,4.832
1200.00,-0.009,0,0,565.743,2666.9126,4.714
1400.00,-0.024,0,0,521.924,2474.9636,4.742
1600.00,0.004,0,0,404.931,1956.6265,4.832
1800.00,0.001,0,0,358.769,1746.4875,4.868
2000.00,0.008,0,0,370.986,1801.5079,4.856
2200.00,0.024,0,0,313.011,1533.1277,4.898
2400.00,0,0,0,409.183,1975.5356,4.828
2600.00,0.018,0,0,565.692,2667.8037,4.716
2800.00,0,0,0,405.407,1958.1158,4.83
3000.00,-0.017,0,0,405.518,1958.652,4.83
3200.00,-0.012,0,0,405.518,1959.4629,4.832
3400.00,-0.013,0,0,404.914,1956.5443,4.832
3600.00,-0.007,0,0,405.383,1959.6215,4.834
3800.00,-0.006,0,0,439.092,2111.1545,4.808
4000.00,0,0,0,410.853,1984.4199,4.83
4200.00,0.007,0,0,405.521,1958.6664,4.83
4400.00,-0.015,0,0,446.912,2145.1777,4.8
4600.00,0.007,0,0,561.271,2648.0764,4.718
4800.00,0.007,0,0,405.221,1958.0278,4.832
5000.00,-0.001,0,0,407.43,1969.5166,4.834
5200.00,0.005,0,0,405.862,1960.3135,4.83
5400.00,-0.007,0,0,405.549,1957.9906,4.828
5600.00,-0.005,0,0,404.735,1954.87,4.83
5800.00,-0.009,0,0,405.48,1959.2793,4.832
6000.00,0.003,0,0,405.838,1961.821,4.834
6200.00,0.001,0,0,405.961,1961.6035,4.832
6400.00,0.027,0,0,405.932,1960.6516,4.83
6600.00,-0.016,0,0,564.773,2666.8582,4.722
6800.00,0,0,0,406.047,1962.8312,4.834
7000.00,0,0,0,405.43,1958.2268,4.83
7200.00,-0.024,0,0,446.2,2144.4373,4.806
7400.00,-0.009,0,0,359.863,1749.6539,4.862
7600.00,0.012,0,0,312.745,1531.1995,4.896
7800.00,0.001,0,0,429.898,2071.2485,4.818
8000.00,0.013,0,0,365.466,1776.1648,4.86
8200.00,0.003,0,0,405.282,1957.5121,4.83
8400.00,-0.01,0,0,408.54,1973.2482,4.83
8600.00,0.002,0,0,405.83,1960.9705,4.832
8800.00,-0.004,0,0,405.781,1960.7338,4.832
9000.00,-0.019,0,0,405.595,1960.6462,4.834
9200.00,-0.021,0,0,408.644,1973.7505,4.83
9400.00,0.01,0,0,564.344,2663.7036,4.72
9600.00,-0.003,0,0,405.386,1958.0143,4.83
9800.00,-0.006,0,0,405.444,1955.8618,4.824
10000.00,0.016,0,0,405.642,1959.2509,4.83
10200.00,0.005,0,0,407.456,1968.0125,4.83
10400.00,-0.014,0,0,405.543,1959.5837,4.832
10600.00,0.007,0,0,405.284,1957.5217,4.83
10800.00,-0.003,0,0,405.761,1960.637,4.832
11000.00,0,0,0,405.102,1956.6426,4.83
11200.00,0.005,0,0,405.649,1958.4734,4.828
11400.00,0.004,0,0,566.123,2672.1003,4.72
11600.00,-0.002,0,0,404.884,1956.3994,4.832
11800.00,0.03,0,0,405.42,1957.3678,4.828
12000.00,0.006,0,0,406.283,1963.972,4.834
12200.00,0,0,0,405.642,1960.8734,4.834
12400.00,-0.013,0,0,406.111,1962.3282,4.832
12600.00,-0.017,0,0,448.931,2155.7666,4.802
12800.00,0.016,0,0,406.032,1961.9467,4.832
13000.00,0.021,0,0,405.353,1958.6656,4.832
13200.00,0.028,0,0,411.075,1983.8481,4.826
13400.00,-0.007,0,0,358.677,1743.8876,4.862
13600.00,0.024,0,0,405.657,1959.3234,4.83
13800.00,-0.002,0,0,405.196,1958.7175,4.834
14000.00,0.023,0,0,405.912,1961.3666,4.832
14200.00,0.01,0,0,405.307,1958.4434,4.832
14400.00,0.009,0,0,405.147,1958.4807,4.834
14600.00,0,0,0,405.628,1959.1831,4.83
14800.00,0.017,0,0,564.279,2663.3967,4.72
15000.00,0,0,0,405.821,1961.7388,4.834
15200.00,0.02,0,0,405.376,1959.5876,4.834
15400.00,0,0,0,446.443,2143.8193,4.802
15600.00,0.019,0,0,406.396,1962.8926,4.83
15800.00,0,0,0,405.416,1958.97,4.832
16000.00,-0.008,0,0,405.409,1958.9362,4.832
16200.00,-0.004,0,0,405.631,1959.1978,4.83
16400.00,0.023,0,0,405.421,1958.1833,4.83
16600.00,0.001,0,0,405.779,1960.724,4.832
16800.00,-0.017,0,0,565.399,2668.6831,4.72
17000.00,-0.004,0,0,405.305,1958.4336,4.832
17200.00,0.006,0,0,405.609,1959.0914,4.83
17400.00,0.001,0,0,405.844,1960.2264,4.83
17600.00,-0.023,0,0,405.202,1958.7465,4.834
17800.00,-0.002,0,0,405.236,1958.1002,4.832
18000.00,-0.008,0,0,407.268,1968.7336,4.834
18200.00,0.032,0,0,426.829,2060.7305,4.828
18400.00,0.012,0,0,405.429,1958.2219,4.83
18600.00,0,0,0,411.97,1990.6389,4.832
18800.00,0.001,0,0,368.114,1789.0342,4.86
19000.00,0,0,0,368.279,1788.3628,4.856
19200.00,0,0,0,313.146,1535.0416,4.902
19400.00,0.004,0,0,365.004,1774.6494,4.862
19600.00,-0.032,0,0,365.633,1777.7076,4.862
19800.00,0.017,0,0,363.375,1766.0026,4.86
20000.00,-0.011,0,0,405.322,1958.5157,4.832
20200.00,0.007,0,0,448.529,2154.7332,4.804
20400.00,0.006,0,0,405.552,1960.4385,4.834
20600.00,-0.008,0,0,405.389,1958.0289,4.83
20800.00,-0.006,0,0,566.118,2670.9446,4.718
21000.00,-0.006,0,0,526.701,2498.6694,4.744
21200.00,0,0,0,405.685,1960.2698,4.832
21400.00,0.007,0,0,405.603,1960.6849,4.834
21600.00,-0.006,0,0,405.554,1958.8257,4.83
21800.00,-0.005,0,0,405.418,1958.9797,4.832
22000.00,-0.012,0,0,408.955,1976.0704,4.832
22200.00,-0.013,0,0,405.583,1959.777,4.832
22400.00,0.018,0,0,405.39,1958.0337,4.83
22600.00,0.002,0,0,405.353,1959.4764,4.834
22800.00,0.015,0,0,405.674,1961.0282,4.834
23000.00,0.006,0,0,566.209,2673.6389,4.722
23200.00,-0.001,0,0,405.284,1958.3322,4.832
23400.00,-0.001,0,0,406.16,1961.7528,4.83
23600.00,-0.008,0,0,446.73,2146.0908,4.804
23800.00,0.001,0,0,406.106,1963.1163,4.834
24000.00,-0.004,0,0,405.822,1961.7435,4.834
24200.00,0.007,0,0,405.612,1959.9171,4.832
24400.00,-0.002,0,0,405.637,1959.2267,4.83
24600.00,0.002,0,0,405.95,1961.5504,4.832
24800.00,-0.008,0,0,405.333,1959.3798,4.834
25000.00,-0.008,0,0,408.418,1971.8422,4.828
25200.00,0.007,0,0,360.89,1755.369,4.864
25400.00,0,0,0,372.107,1806.2074,4.854
25600.00,-0.009,0,0,405.563,1958.8693,4.83
25800.00,-0.024,0,0,405.415,1959.7762,4.834
26000.00,-0.003,0,0,565.16,2669.8157,4.724
26200.00,0.001,0,0,405.378,1959.5973,4.834
26400.00,0.005,0,0,405.958,1962.401,4.834
26600.00,-0.002,0,0,406.452,1963.1631,4.83
26800.00,0.003,0,0,405.526,1960.3127,4.834
27000.00,-0.015,0,0,405.526,1959.5016,4.832
27200.00,0,0,0,405.723,1960.4534,4.832
27400.00,0.008,0,0,404.835,1955.353,4.83
27600.00,0.004,0,0,404.863,1955.4883,4.83
27800.00,-0.001,0,0,451.174,2164.7329,4.798
28000.00,0.026,0,0,565.834,2674.1313,4.726
28200.00,0.004,0,0,405.583,1959.777,4.832
28400.00,-0.002,0,0,405.378,1959.5973,4.834
28600.00,0,0,0,405.904,1960.5162,4.83
28800.00,0.001,0,0,406.455,1963.1776,4.83
29000.00,0,0,0,405.455,1959.1584,4.832
29200.00,-0.012,0,0,404.998,1956.9502,4.832
29400.00,0,0,0,405.369,1958.7429,4.832
29600.00,-0.009,0,0,405.66,1959.3378,4.83
29800.00,-0.024,0,0,405.524,1958.6808,4.83
30000.00,0.033,0,0,566.5,2673.8799,4.72
30200.00,-0.021,0,0,405.389,1958.0289,4.83
30400.00,0.003,0,0,405.759,1960.6274,4.832
30600.00,0.012,0,0,360.11,1751.575,4.864
30800.00,-0.004,0,0,315.67,1545.5204,4.896
31000.00,0.007,0,0,365.626,1776.2111,4.858
31200.00,-0.012,0,0,436.352,2099.7256,4.812
31400.00,0.016,0,0,399.724,1929.0681,4.826
31600.00,0.004,0,0,361.307,1757.3972,4.864
31800.00,-0.021,0,0,400.741,1937.182,4.834
32000.00,-0.004,0,0,368.297,1789.9235,4.86
32200.00,0.012,0,0,359.856,1748.9001,4.86
32400.00,0.017,0,0,364.089,1770.2007,4.862
32600.00,0.006,0,0,363.17,1764.2799,4.858
32800.00,0.034,0,0,363.701,1767.5869,4.86
33000.00,0,0,0,361.054,1756.8888,4.866
33200.00,-0.013,0,0,360.832,1755.0868,4.864
33400.00,0.009,0,0,366.065,1778.3438,4.858
33600.00,-0.011,0,0,368.168,1789.2965,4.86
33800.00,-0.007,0,0,361.023,1755.2938,4.862
34000.00,-0.015,0,0,366.206,1779.0287,4.858
34200.00,0.033,0,0,366.922,1783.9747,4.862
34400.00,-0.008,0,0,366.305,1780.9749,4.862
34600.00,0.009,0,0,446.55,2144.333,4.802
34800.00,-0.002,0,0,405.393,1958.0482,4.83
35000.00,-0.006,0,0,405.805,1962.4729,4.836
35200.00,-0.005,0,0,405.558,1958.8452,4.83
35400.00,-0.02,0,0,442.901,2125.9248,4.8
35600.00,-0.003,0,0,405.127,1958.384,4.834
35800.00,0.002,0,0,405.312,1958.4675,4.832
36000.00,0.004,0,0,564.159,2665.0872,4.724
36200.00,-0.005,0,0,404.732,1955.6649,4.832
36400.00,0,0,0,404.917,1956.5588,4.832
36600.00,0.015,0,0,405.373,1959.573,4.834
36800.00,-0.005,0,0,405.028,1956.2853,4.83
37000.00,-0.015,0,0,405.04,1957.9635,4.834
37200.00,0.028,0,0,404.941,1957.4849,4.834
37400.00,-0.014,0,0,405.361,1958.7042,4.832
37600.00,-0.02,0,0,408.229,1971.7461,4.83
37800.00,0.031,0,0,405.822,1960.1202,4.83
38000.00,-0.01,0,0,564.208,2659.6768,4.714
38200.00,0.005,0,0,405.632,1960.0137,4.832
38400.00,0.005,0,0,405.201,1957.1207,4.83
38600.00,0.015,0,0,316.583,1549.9904,4.896
38800.00,0.003,0,0,314.374,1539.8037,4.898
39000.00,-0.01,0,0,314.35,1539.0576,4.896
39200.00,0.001,0,0,363.477,1766.4982,4.86
39400.00,0.005,0,0,314.411,1538.7275,4.894
39600.00,0.019,0,0,314.528,1540.5581,4.898
39800.00,-0.02,0,0,317.614,1553.1324,4.89
40000.00,0.008,0,0,408.383,1970.8564,4.826
40200.00,-0.013,0,0,355.735,1731.7179,4.868
40400.00,-0.008,0,0,356.106,1732.0995,4.864
40600.00,-0.015,0,0,356.241,1733.4688,4.866
40800.00,0.014,0,0,410.115,1981.6755,4.832
41000.00,0.01,0,0,408.343,1973.1133,4.832
41200.00,-0.013,0,0,405.961,1961.6035,4.832
41400.00,-0.006,0,0,405.48,1959.2793,4.832
41600.00,0.012,0,0,403.061,1947.5907,4.832
41800.00,0.011,0,0,459.162,2200.3042,4.792
42000.00,-0.013,0,0,363.625,1767.9447,4.862
42200.00,-0.011,0,0,363.354,1767.3538,4.864
42400.00,-0.007,0,0,404.411,1954.9229,4.834
42600.00,-0.003,0,0,363.872,1769.8734,4.864
42800.00,0.002,0,0,471.466,2256.4363,4.786
43000.00,-0.001,0,0,372.518,1808.2024,4.854
43200.00,0.012,0,0,313.979,1535.9854,4.892
43400.00,0.017,0,0,363.181,1766.5123,4.864
43600.00,0.024,0,0,362.829,1762.6233,4.858
43800.00,0.001,0,0,415.275,2004.1172,4.826
44000.00,-0.024,0,0,367.883,1787.1755,4.858
44200.00,-0.007,0,0,371.469,1803.8534,4.856
44400.00,0.011,0,0,312.579,1531.012,4.898
44600.00,-0.007,0,0,416.192,2016.8665,4.846
44800.00,0,0,0,432.321,2079.4641,4.81
45000.00,0.002,0,0,367.759,1786.5731,4.858
45200.00,0,0,0,312.671,1531.4624,4.898
45400.00,-0.001,0,0,363.267,1766.2041,4.862
45600.00,0.003,0,0,364.489,1770.6875,4.858
45800.00,-0.003,0,0,431.029,2076.6975,4.818
46000.00,0.009,0,0,362.959,1763.9808,4.86
46200.00,0.003,0,0,363.243,1766.0875,4.862
46400.00,-0.007,0,0,370.413,1800.2072,4.86
46600.00,0.013,0,0,361.984,1759.2423,4.86
46800.00,-0.011,0,0,312.449,1531.0001,4.9
47000.00,-0.022,0,0,365.392,1774.3435,4.856
47200.00,0.001,0,0,314.411,1539.3563,4.896
47400.00,-0.011,0,0,367.082,1784.0186,4.86
47600.00,-0.014,0,0,369.625,1794.8989,4.856
47800.00,0.005,0,0,365.861,1778.0845,4.86
48000.00,-0.001,0,0,363.274,1766.2382,4.862
48200.00,-0.005,0,0,313.64,1534.9542,4.894
48400.00,0.004,0,0,363.003,1764.9205,4.862
48600.00,-0.023,0,0,415.871,2005.33,4.822
48800.00,0.028,0,0,360.819,1754.302,4.862
49000.00,0.021,0,0,365.478,1776.954,4.862
49200.00,-0.003,0,0,408.178,1971.4998,4.83
49400.00,-0.007,0,0,405.213,1957.9891,4.832
49600.00,-0.004,0,0,405.003,1956.1644,4.83
49800.00,-0.005,0,0,405.645,1960.0765,4.832
50000.00,0.007,0,0,613.446,2874.6079,4.686
50200.00,0.006,0,0,405.603,1959.8735,4.832
50400.00,-0.021,0,0,404.739,1956.5084,4.834
50600.00,-0.009,0,0,404.665,1956.1508,4.834
50800.00,-0.009,0,0,405.319,1957.6908,4.83
51000.00,0,0,0,445.978,2142.4783,4.804
51200.00,-0.009,0,0,405.487,1959.3131,4.832
51400.00,-0.015,0,0,405.307,1957.6328,4.83
51600.00,-0.009,0,0,405.159,1956.918,4.83
51800.00,0,0,0,405.702,1959.5406,4.83
52000.00,0.013,0,0,565.714,2670.1699,4.72
52200.00,-0.01,0,0,405.62,1959.9557,4.832
52400.00,-0.016,0,0,407.076,1965.3629,4.828
52600.00,-0.024,0,0,405.336,1958.5835,4.832
52800.00,-0.001,0,0,405.571,1960.5303,4.834
53000.00,0,0,0,405.521,1959.4774,4.832
53200.00,-0.005,0,0,405.065,1958.8943,4.836
53400.00,-0.006,0,0,405.62,1960.7671,4.834
53600.00,0.006,0,0,405.287,1959.1573,4.834
53800.00,0,0,0,405.768,1960.6709,4.832
54000.00,0.011,0,0,565.874,2669.7937,4.718
54200.00,0.012,0,0,358.8,1745.2031,4.864
54400.00,0.009,0,0,358.615,1744.3032,4.864
54600.00,0.01,0,0,363.675,1766.733,4.858
54800.00,0.017,0,0,363.342,1765.1154,4.858
55000.00,0.015,0,0,364.785,1771.396,4.856
55200.00,0,0,0,363.601,1767.101,4.86
55400.00,-0.003,0,0,363.44,1767.0453,4.862
55600.00,0.012,0,0,363.218,1765.2395,4.86
55800.00,0.007,0,0,360.701,1753.7281,4.862
56000.00,0.003,0,0,420.046,2024.6217,4.82
56200.00,-0.008,0,0,360.207,1751.3264,4.862
56400.00,-0.009,0,0,364.156,1770.5265,4.862
56600.00,-0.015,0,0,367.685,1786.2136,4.858
56800.00,0.008,0,0,368.188,1789.3937,4.86
57000.00,-0.002,0,0,360.635,1754.1287,4.864
57200.00,-0.023,0,0,362.116,1760.608,4.862
57400.00,0.002,0,0,312.35,1529.2656,4.896
57600.00,-0.007,0,0,400.798,1941.4655,4.844
57800.00,0.001,0,0,363.059,1764.4668,4.86
58000.00,-0.015,0,0,361.134,1756.5558,4.864
58200.00,0,0,0,365.749,1776.8086,4.858
58400.00,-0.019,0,0,312.831,1532.2461,4.898
58600.00,0.003,0,0,362.936,1765.3207,4.864
58800.00,-0.012,0,0,362.775,1765.2632,4.866
59000.00,0,0,0,360.603,1754.6942,4.866
59200.00,-0.003,0,0,404.624,1955.9524,4.834
59400.00,0.006,0,0,313.713,1536.5663,4.898
59600.00,0,0,0,362.881,1765.0532,4.864
59800.00,-0.018,0,0,360.827,1755.0625,4.864
60000.00,0.008,0,0,418.029,2015.7358,4.822
60200.00,0,0,0,402.208,1935.4248,4.812
60400.00,0.008,0,0,312.818,1530.9313,4.894
60600.00,0.011,0,0,363.233,1766.7653,4.864
60800.00,0.002,0,0,367.898,1787.2484,4.858
61000.00,0.003,0,0,365.159,1774.6727,4.86
61200.00,0,0,0,367.528,1784.7161,4.856
61400.00,-0.026,0,0,312.621,1531.2177,4.898
61600.00,-0.006,0,0,363.11,1764.7146,4.86
61800.00,0.013,0,0,370.249,1797.9291,4.856
62000.00,0.01,0,0,403.804,1951.9885,4.834
62200.00,0,0,0,368.829,1791.7712,4.858
62400.00,0.012,0,0,312.275,1530.1475,4.9
62600.00,0.007,0,0,363.443,1766.333,4.86
62800.00,0.004,0,0,363.209,1765.1958,4.86
63000.00,-0.003,0,0,420.708,2027.8126,4.82
63200.00,-0.004,0,0,365.603,1776.0992,4.858
63400.00,0.003,0,0,369.226,1793.7,4.858
63600.00,0,0,0,312.689,1530.9253,4.896
63800.00,0.009,0,0,425.87,2051.8416,4.818
64000.00,-0.01,0,0,362.914,1763.7621,4.86
64200.00,0.017,0,0,365.654,1777.0785,4.86
64400.00,-0.044,0,0,312.541,1531.4508,4.9
64600.00,0.005,0,0,368.72,1791.9792,4.86
64800.00,0.009,0,0,426.73,2055.9851,4.818
65000.00,-0.012,0,0,363.369,1765.9734,4.86
65200.00,0,0,0,367.368,1784.6737,4.858
65400.00,0.007,0,0,312.603,1531.7548,4.9
65600.00,0.007,0,0,363.078,1764.5591,4.86
65800.00,-0.008,0,0,429.939,2071.446,4.818
66000.00,0.002,0,0,362.616,1763.0389,4.862
66200.00,0.012,0,0,365.43,1776.7206,4.862
66400.00,-0.013,0,0,360.506,1753.5012,4.864
66600.00,-0.01,0,0,363.369,1766.7001,4.862
66800.00,0.011,0,0,417.224,2013.5231,4.826
67000.00,0.003,0,0,360.85,1754.4528,4.862
67200.00,-0.002,0,0,360.356,1752.0508,4.862
67400.00,0.012,0,0,368.052,1788.7328,4.86
67600.00,-0.002,0,0,367.923,1787.3699,4.858
67800.00,0.006,0,0,362.666,1762.5568,4.86
68000.00,0.016,0,0,404.158,1952.083,4.83
68200.00,0.003,0,0,404.429,1954.2008,4.832
68400.00,-0.012,0,0,404.57,1954.0731,4.83
68600.00,0.005,0,0,405.458,1957.5513,4.828
68800.00,0,0,0,405.475,1958.4442,4.83
69000.00,-0.002,0,0,405.364,1957.9082,4.83
69200.00,-0.01,0,0,404.883,1955.5848,4.83
69400.00,-0.017,0,0,404.895,1956.4525,4.832
69600.00,-0.007,0,0,405.142,1957.646,4.832
69800.00,-0.006,0,0,565.661,2671.0513,4.722
70000.00,0.012,0,0,405.722,1961.2601,4.834
70200.00,-0.021,0,0,446.147,2143.29,4.804
70400.00,-0.006,0,0,404.804,1956.0128,4.832
70600.00,0,0,0,405.557,1958.0293,4.828
70800.00,-0.007,0,0,404.981,1956.0581,4.83
71000.00,0.012,0,0,404.895,1955.6428,4.83
71200.00,0.036,0,0,405.561,1959.6707,4.832
71400.00,0.006,0,0,405.376,1958.7767,4.832
71600.00,-0.021,0,0,405.055,1956.4155,4.83
71800.00,0.012,0,0,566.215,2671.4023,4.718
72000.00,-0.006,0,0,541.977,2561.3831,4.726
72200.00,-0.009,0,0,448.554,2153.0593,4.8
72400.00,0,0,0,405.384,1959.6263,4.834
72600.00,0.003,0,0,404.829,1956.9435,4.834
72800.00,-0.01,0,0,405.582,1959.7721,4.832
73000.00,-0.002,0,0,358.611,1743.5667,4.862
73200.00,0.003,0,0,418.281,2016.1145,4.82
73400.00,-0.002,0,0,450.936,2162.689,4.796
73600.00,-0.008,0,0,312.455,1529.1547,4.894
73800.00,-0.006,0,0,362.912,1764.478,4.862
74000.00,-0.004,0,0,362.962,1764.7213,4.862
74200.00,0.018,0,0,406.811,1965.7107,4.832
74400.00,0.025,0,0,365.566,1776.6509,4.86
74600.00,0.011,0,0,405.219,1958.0181,4.832
74800.00,-0.007,0,0,405.039,1957.9586,4.834
75000.00,-0.009,0,0,404.335,1953.7466,4.832
75200.00,-0.011,0,0,405.174,1958.6112,4.834
75400.00,0.012,0,0,408.198,1973.2291,4.834
75600.00,0.024,0,0,405.063,1956.4542,4.83
75800.00,-0.006,0,0,564.78,2668.0208,4.724
76000.00,-0.004,0,0,404.721,1956.4214,4.834
76200.00,-0.002,0,0,405.103,1957.4576,4.832
76400.00,0.02,0,0,405.412,1958.1399,4.83
76600.00,-0.005,0,0,408.263,1971.9103,4.83
76800.00,0,0,0,405.676,1959.415,4.83
77000.00,-0.01,0,0,405.416,1958.97,4.832
77200.00,-0.006,0,0,405.236,1958.9109,4.834
77400.00,-0.01,0,0,405.433,1958.2415,4.83
77600.00,0.012,0,0,405.174,1956.1802,4.828
77800.00,-0.012,0,0,565.635,2669.7971,4.72
78000.00,-0.011,0,0,406.347,1962.6559,4.83
78200.00,0.026,0,0,405.268,1959.0656,4.834
78400.00,0.005,0,0,445.958,2140.5986,4.8
78600.00,0.005,0,0,406.157,1963.363,4.834
78800.00,-0.002,0,0,405.409,1959.7472,4.834
79000.00,-0.009,0,0,404.87,1956.3318,4.832
79200.00,-0.011,0,0,405.164,1956.9421,4.83
79400.00,0.004,0,0,405.393,1959.6698,4.834
79600.00,0.009,0,0,409.046,1974.874,4.828
79800.00,0.019,0,0,391.389,1893.5399,4.838
80000.00,-0.016,0,0,365.922,1778.381,4.86
80200.00,0,0,0,358.616,1745.0255,4.866
80400.00,-0.001,0,0,358.333,1742.9316,4.864
80600.00,0.009,0,0,405.154,1957.704,4.832
80800.00,-0.008,0,0,564.441,2663.0325,4.718
81000.00,0,0,0,404.826,1956.1191,4.832
81200.00,-0.008,0,0,405.275,1957.4781,4.83
81400.00,0.008,0,0,405.966,1960.8158,4.83
81600.00,0.012,0,0,405.645,1960.0765,4.832
81800.00,0,0,0,405.312,1957.657,4.83
82000.00,-0.012,0,0,405.176,1958.6208,4.834
82200.00,-0.004,0,0,405.85,1961.0671,4.832
82400.00,0.003,0,0,405.796,1959.9946,4.83
82600.00,0,0,0,405.43,1959.8486,4.834
82800.00,-0.011,0,0,566.206,2669.0952,4.714
83000.00,0.004,0,0,404.998,1956.9502,4.832
83200.00,-0.013,0,0,405.566,1958.8838,4.83
83400.00,0.005,0,0,405.467,1958.4056,4.83
83600.00,0,0,0,405.932,1960.6516,4.83
83800.00,0.021,0,0,405.401,1958.8976,4.832
84000.00,-0.001,0,0,405.068,1957.2885,4.832
84200.00,-0.009,0,0,405.68,1958.623,4.828
84400.00,0.009,0,0,405.611,1959.9122,4.832
84600.00,0,0,0,405.764,1959.8401,4.83
84800.00,0.014,0,0,564.515,2663.3818,4.718
85000.00,-0.003,0,0,405.504,1958.5842,4.83
85200.00,-0.01,0,0,405.41,1958.1302,4.83
85400.00,0.012,0,0,405.089,1955.7697,4.828
85600.00,-0.004,0,0,358.042,1742.2324,4.866
85800.00,-0.01,0,0,315.071,1542.5876,4.896
86000.00,0.01,0,0,362.312,1760.8364,4.86
86200.00,-0.009,0,0,371.254,1803.5519,4.858
86400.00,0.009,0,0,312.831,1530.9949,4.894
86600.00,0,0,0,403.644,1950.4078,4.832
86800.00,0.01,0,0,406.075,1962.1544,4.832
87000.00,0,0,0,364.893,1774.1097,4.862
87200.00,-0.016,0,0,370.601,1799.6385,4.856
87400.00,-0.003,0,0,312.337,1529.2019,4.896
87600.00,0.014,0,0,365.874,1777.4158,4.858
87800.00,0.001,0,0,364.406,1771.7419,4.862
88000.00,0.008,0,0,405.071,1956.4929,4.83
88200.00,-0.001,0,0,405.133,1956.7924,4.83
88400.00,-0.013,0,0,405.898,1961.2991,4.832
88600.00,-0.011,0,0,404.886,1955.5992,4.83
88800.00,-0.003,0,0,405.256,1957.3865,4.83
89000.00,-0.003,0,0,405.404,1958.912,4.832
89200.00,-0.01,0,0,405.959,1962.4059,4.834
89400.00,0.012,0,0,446.094,2141.2512,4.8
89600.00,0.006,0,0,566.273,2670.5435,4.716
89800.00,0.004,0,0,405.696,1959.5117,4.83
90000.00,-0.007,0,0,405.634,1960.8348,4.834
90200.00,-0.019,0,0,405.256,1959.0076,4.834
90400.00,0.016,0,0,405.194,1957.087,4.83
90600.00,-0.005,0,0,405.905,1961.3329,4.832
90800.00,0.013,0,0,405.868,1961.9661,4.834
91000.00,-0.004,0,0,405.696,1958.7004,4.828
91200.00,0,0,0,405.713,1961.2168,4.834
91400.00,-0.011,0,0,405.503,1958.5795,4.83
91600.00,-0.01,0,0,565.857,2671.9768,4.722
91800.00,0.006,0,0,405.532,1958.7196,4.83
92000.00,0.011,0,0,406.766,1965.4932,4.832
92200.00,-0.009,0,0,405.221,1958.8384,4.834
92400.00,-0.024,0,0,405.702,1959.5406,4.83
92600.00,0.006,0,0,406.067,1962.1156,4.832
92800.00,-0.009,0,0,405.216,1957.1932,4.83
93000.00,0.013,0,0,358.727,1744.1306,4.862
93200.00,0,0,0,411.078,1986.3289,4.832
93400.00,0.017,0,0,358.752,1745.6874,4.866
93600.00,-0.004,0,0,368.353,1787.9855,4.854
93800.00,0.006,0,0,374.857,1820.3055,4.856
94000.00,-0.011,0,0,405.093,1958.2196,4.834
94200.00,0,0,0,405.45,1958.3235,4.83
94400.00,0.002,0,0,611.422,2865.1233,4.686
94600.00,0.001,0,0,405.352,1958.6608,4.832
94800.00,0.001,0,0,405.648,1960.0911,4.832
95000.00,0.012,0,0,405.574,1960.5448,4.834
95200.00,0,0,0,405.767,1959.8546,4.83
95400.00,0.019,0,0,405.199,1957.1112,4.83
95600.00,-0.002,0,0,404.957,1955.9423,4.83
95800.00,-0.007,0,0,405.512,1958.6229,4.83
96000.00,0.006,0,0,405.537,1958.7437,4.83
96200.00,-0.024,0,0,404.969,1956.8101,4.832
96400.00,0.004,0,0,571.264,2687.2258,4.704
96600.00,0.01,0,0,561.416,2649.8835,4.72
96800.00,-0.011,0,0,405.043,1956.3577,4.83
97000.00,0.006,0,0,405.318,1958.4965,4.832
97200.00,0,0,0,405.873,1961.1782,4.832
97400.00,-0.006,0,0,405.688,1959.4729,4.83
97600.00,-0.01,0,0,447.032,2146.6477,4.802
97800.00,-0.011,0,0,405.165,1958.5677,4.834
98000.00,-0.006,0,0,405.244,1957.3285,4.83
98200.00,0,0,0,405.688,1959.4729,4.83
98400.00,-0.02,0,0,408.527,1973.1854,4.83
98600.00,0.005,0,0,565.15,2666.3777,4.718
98800.00,-0.001,0,0,358.494,1743.7147,4.864
99000.00,0.003,0,0,358.556,1743.2993,4.862
99200.00,-0.032,0,0,363.233,1765.3124,4.86
99400.00,0.005,0,0,405.515,1960.2596,4.834
99600.00,0.005,0,0,462.178,2212.9084,4.788
99800.00,-0.025,0,0,410.111,1980.8361,4.83
100000.00,0.015,0,0,356.069,1733.3439,4.868
100200.00,0.022,0,0,408.173,1970.6593,4.828
100400.00,0,0,0,355.563,1730.1696,4.866
100600.00,-0.003,0,0,404.182,1953.0073,4.832
100800.00,0.006,0,0,354.841,1728.0757,4.87
101000.00,0,0,0,408.136,1972.113,4.832
101200.00,-0.009,0,0,410.802,1983.3521,4.828
101400.00,0.004,0,0,409.926,1981.5823,4.834
101600.00,0,0,0,405.182,1957.8394,4.832
101800.00,0.016,0,0,406.017,1961.062,4.83
102000.00,-0.008,0,0,449.944,2159.7312,4.8
102200.00,-0.018,0,0,405.441,1959.0908,4.832
102400.00,0.012,0,0,405.762,1961.4535,4.834
102600.00,0.025,0,0,405.515,1960.2596,4.834
102800.00,-0.008,0,0,405.725,1961.2748,4.834
103000.00,-0.009,0,0,405.565,1958.8789,4.83
103200.00,-0.001,0,0,405.952,1962.3719,4.834
103400.00,-0.002,0,0,510.272,2449.3057,4.8
103600.00,-0.001,0,0,564.5,2664.4399,4.72
103800.00,0.008,0,0,405.359,1959.5055,4.834
104000.00,0.005,0,0,405.396,1958.8734,4.832
104200.00,0.011,0,0,405.853,1960.2699,4.83
104400.00,0,0,0,405.409,1959.7472,4.834
104600.00,-0.022,0,0,405.89,1961.2605,4.832
104800.00,0.008,0,0,405.619,1959.9508,4.832
105000.00,-0.004,0,0,405.762,1959.8304,4.83
105200.00,0.005,0,0,405.387,1958.8298,4.832
105400.00,0.002,0,0,405.436,1958.2559,4.83
105600.00,-0.001,0,0,565.376,2668.5745,4.72
105800.00,0.009,0,0,446.308,2144.0637,4.804
106000.00,-0.012,0,0,405.261,1958.2209,4.832
106200.00,0.014,0,0,406.013,1961.0427,4.83
106400.00,0.013,0,0,359.376,1748.0049,4.864
106600.00,-0.005,0,0,315.188,1543.7906,4.898
106800.00,0.008,0,0,363.361,1765.9344,4.86
107000.00,-0.005,0,0,363.232,1766.0339,4.862
107200.00,0.007,0,0,368.514,1790.241,4.858
107400.00,0.015,0,0,312.831,1530.9949,4.894
107600.00,-0.004,0,0,313.461,1535.9589,4.9
107800.00,-0.007,0,0,361.196,1756.135,4.862
108000.00,-0.004,0,0,405.557,1959.6514,4.832
108200.00,0.011,0,0,405.335,1958.5786,4.832
108400.00,0,0,0,406.327,1963.3719,4.832
108600.00,-0.011,0,0,447.434,2149.4729,4.804
108800.00,-0.003,0,0,405.944,1960.7095,4.83
109000.00,0.003,0,0,452.433,2169.8687,4.796
109200.00,0.019,0,0,405.068,1957.2885,4.832
109400.00,0,0,0,562.638,2656.7766,4.722
109600.00,-0.014,0,0,406.203,1961.9604,4.83
109800.00,0.032,0,0,405.66,1960.149,4.832
110000.00,-0.005,0,0,407.01,1965.0443,4.828
110200.00,0.005,0,0,405.332,1959.3749,4.834
110400.00,-0.005,0,0,405.339,1956.9767,4.828
110600.00,0.004,0,0,407.079,1967.0057,4.832
110800.00,0.012,0,0,406.529,1964.348,4.832
111000.00,0.023,0,0,405.507,1960.2208,4.834
111200.00,-0.017,0,0,405.939,1961.4972,4.832
111400.00,0,0,0,561.181,2647.6521,4.718
111600.00,0.002,0,0,407.734,1970.1707,4.832
111800.00,-0.016,0,0,405.964,1962.4299,4.834
112000.00,0.016,0,0,405.532,1959.5306,4.832
112200.00,-0.011,0,0,405.619,1959.9508,4.832
112400.00,-0.013,0,0,405.557,1958.8403,4.83
112600.00,0.004,0,0,405.322,1958.5157,4.832
112800.00,0.015,0,0,405.298,1959.2106,4.834
113000.00,0,0,0,358.475,1744.3395,4.866
113200.00,-0.006,0,0,411.123,1985.724,4.83
113400.00,0.008,0,0,358.932,1745.8452,4.864
113600.00,0.001,0,0,369.175,1791.9755,4.854
113800.00,-0.009,0,0,312.936,1532.7605,4.898
114000.00,0.011,0,0,404.91,1954.9055,4.828
114200.00,-0.019,0,0,313.318,1534.0049,4.896
114400.00,-0.014,0,0,363.857,1769.0728,4.862
114600.00,-0.006,0,0,363.277,1765.5264,4.86
114800.00,0.012,0,0,361.216,1756.2322,4.862
115000.00,-0.006,0,0,365.054,1774.1625,4.86
115200.00,-0.011,0,0,365.733,1777.4624,4.86
115400.00,0.004,0,0,365.425,1776.6963,4.862
115600.00,0.008,0,0,365.486,1776.262,4.86
115800.00,0.008,0,0,360.648,1752.7494,4.86
116000.00,0.002,0,0,363.339,1768.0076,4.866
116200.00,-0.017,0,0,312.861,1532.3931,4.898
116400.00,0.022,0,0,405.35,1959.4619,4.834
116600.00,0.015,0,0,449.274,2156.5151,4.8
116800.00,0.002,0,0,446.016,2142.6609,4.804
117000.00,0,0,0,405.432,1959.8584,4.834
117200.00,-0.004,0,0,405.498,1960.1774,4.834
117400.00,-0.007,0,0,405.794,1959.985,4.83
117600.00,-0.008,0,0,566.027,2673.9114,4.724
117800.00,-0.012,0,0,405.042,1956.3528,4.83
118000.00,0.004,0,0,406.182,1961.859,4.83
118200.00,-0.024,0,0,405.268,1959.0656,4.834
118400.00,0.012,0,0,404.866,1957.1223,4.834
118600.00,-0.002,0,0,405.157,1958.5291,4.834
118800.00,0.02,0,0,406.058,1962.8845,4.834
119000.00,-0.003,0,0,405.362,1957.0878,4.828
119200.00,0.009,0,0,405.046,1955.562,4.828
119400.00,0.001,0,0,405.577,1958.9369,4.83
119600.00,0.001,0,0,565.695,2670.0803,4.72
119800.00,-0.012,0,0,405.676,1960.2263,4.832
120000.00,0.01,0,0,406.894,1966.1118,4.832
120200.00,-0.006,0,0,405.29,1958.3612,4.832
120400.00,0,0,0,405.409,1958.1254,4.83
120600.00,0.004,0,0,405.545,1961.2157,4.836
120800.00,0.003,0,0,405.372,1957.9468,4.83
121000.00,0.007,0,0,405.952,1962.3719,4.834
121200.00,0,0,0,405.676,1959.415,4.83
121400.00,-0.005,0,0,410.209,1982.9504,4.834
121600.00,0.028,0,0,313.016,1531.9003,4.894
121800.00,0.017,0,0,367.058,1783.1677,4.858
122000.00,0,0,0,312.696,1531.585,4.898
122200.00,0.001,0,0,366.262,1780.0333,4.86
122400.00,-0.007,0,0,438.492,2108.2695,4.808
122600.00,0.014,0,0,366.084,1779.9005,4.862
122800.00,-0.012,0,0,370.564,1798.7177,4.854
123000.00,0.009,0,0,312.979,1531.7192,4.894
123200.00,-0.009,0,0,363.782,1769.4357,4.864
123400.00,0.007,0,0,426.451,2054.6409,4.818
123600.00,0,0,0,409.58,1979.0905,4.832
123800.00,0.012,0,0,360.535,1752.9211,4.862
124000.00,-0.02,0,0,360.522,1753.579,4.864
124200.00,-0.005,0,0,403.962,1952.7523,4.834
124400.00,0.012,0,0,361.319,1757.4556,4.864
124600.00,0.01,0,0,313.115,1533.6372,4.898
124800.00,-0.003,0,0,363.499,1766.6051,4.86
125000.00,-0.002,0,0,403.807,1952.0032,4.834
125200.00,-0.016,0,0,365.925,1779.1273,4.862
125400.00,0.005,0,0,436.542,2098.021,4.806
125600.00,0.017,0,0,366.142,1779.4502,4.86
125800.00,0.008,0,0,360.705,1755.1906,4.866
126000.00,-0.001,0,0,368.06,1787.2993,4.856
126200.00,-0.022,0,0,312.633,1531.2764,4.898
126400.00,0.018,0,0,427.224,2056.6565,4.814
126600.00,0.007,0,0,363.665,1768.1393,4.862
126800.00,0.004,0,0,363.487,1767.2738,4.862
127000.00,0.001,0,0,360.858,1754.4916,4.862
127200.00,0.008,0,0,313.207,1533.4614,4.896
127400.00,-0.001,0,0,428.544,2063.011,4.814
127600.00,-0.002,0,0,363.584,1767.7455,4.862
127800.00,-0.005,0,0,363.011,1763.5073,4.858
128000.00,-0.003,0,0,362.888,1764.3615,4.862
128200.00,-0.003,0,0,313.275,1534.4209,4.898
128400.00,0.004,0,0,428.89,2066.3921,4.818
128600.00,-0.013,0,0,369.145,1792.568,4.856
128800.00,-0.01,0,0,312.553,1529.6344,4.894
129000.00,0.013,0,0,363.388,1765.3389,4.858
129200.00,0.007,0,0,364.24,1769.4778,4.858
129400.00,-0.005,0,0,364.467,1771.3097,4.86
129600.00,0.007,0,0,363.752,1767.8348,4.86
129800.00,0.008,0,0,363.085,1764.5931,4.86
130000.00,0.004,0,0,364.986,1773.832,4.86
130200.00,0.002,0,0,359.716,1748.2198,4.86
130400.00,-0.012,0,0,312.492,1529.9608,4.896
130600.00,-0.005,0,0,367.003,1784.3685,4.862
130800.00,-0.004,0,0,362.967,1763.2937,4.858
131000.00,-0.007,0,0,360.993,1755.87,4.864
131200.00,0.002,0,0,409.086,1975.0673,4.828
131400.00,0.024,0,0,312.3,1529.6453,4.898
131600.00,0.001,0,0,363.394,1766.8217,4.862
131800.00,-0.015,0,0,362.727,1764.3041,4.864
132000.00,-0.013,0,0,363.209,1765.1958,4.86
132200.00,-0.018,0,0,363.986,1769.7,4.862
132400.00,-0.002,0,0,428.186,2063,4.818
132600.00,-0.008,0,0,368.046,1787.9674,4.858
132800.00,-0.015,0,0,405.256,1958.1969,4.832
133000.00,0,0,0,405.453,1959.1488,4.832
133200.00,-0.004,0,0,446.514,2145.0532,4.804
133400.00,0.014,0,0,405.693,1959.4971,4.83
133600.00,0.013,0,0,405.507,1960.2208,4.834
133800.00,0.007,0,0,565.4,2667.5574,4.718
134000.00,-0.006,0,0,405.409,1958.9362,4.832
134200.00,0,0,0,404.984,1956.8827,4.832
134400.00,0.009,0,0,405.503,1959.3904,4.832
134600.00,-0.006,0,0,404.984,1957.6927,4.834
134800.00,0.014,0,0,405.207,1957.1498,4.83
135000.00,-0.012,0,0,406.095,1962.251,4.832
135200.00,-0.005,0,0,405.265,1957.4299,4.83
135400.00,0.014,0,0,405.611,1959.9122,4.832
135600.00,-0.007,0,0,405.352,1958.6608,4.832
135800.00,0.007,0,0,565.326,2664.9468,4.714
136000.00,0.003,0,0,449.368,2157.8652,4.802
136200.00,0.009,0,0,405.54,1960.3805,4.834
136400.00,0,0,0,405.453,1958.338,4.83
136600.00,-0.006,0,0,405.75,1961.3955,4.834
136800.00,-0.002,0,0,405.441,1959.9019,4.834
137000.00,0.002,0,0,431.222,2072.4529,4.806
137200.00,0,0,0,405.569,1960.5206,4.834
137400.00,0.001,0,0,405.396,1958.0626,4.83
137600.00,0.006,0,0,406.964,1966.45,4.832
137800.00,0,0,0,408.729,1972.5262,4.826
138000.00,-0.012,0,0,359.253,1747.4065,4.864
138200.00,0.004,0,0,370.552,1799.4005,4.856
138400.00,-0.015,0,0,312.572,1531.6028,4.9
138600.00,0.004,0,0,427.1,2056.9136,4.816
138800.00,0.008,0,0,405.597,1959.0334,4.83
139000.00,0.013,0,0,365.536,1775.7739,4.858
139200.00,-0.01,0,0,368.447,1789.9154,4.858
139400.00,0,0,0,312.689,1530.9253,4.896
139600.00,0.001,0,0,433.016,2085.405,4.816
139800.00,-0.004,0,0,363.863,1769.1019,4.862
140000.00,-0.01,0,0,368.404,1788.9697,4.856
140200.00,-0.003,0,0,406.486,1963.3273,4.83
140400.00,-0.012,0,0,405.98,1961.6953,4.832
140600.00,-0.01,0,0,405.399,1958.8878,4.832
140800.00,0,0,0,405.634,1960.8348,4.834
141000.00,-0.002,0,0,564.556,2662.4463,4.716
141200.00,-0.004,0,0,406.074,1962.1495,4.832
141400.00,-0.012,0,0,405.066,1957.2788,4.832
141600.00,-0.009,0,0,405.486,1958.4973,4.83
141800.00,0,0,0,405.21,1958.7852,4.834
142000.00,0.009,0,0,406.876,1966.8386,4.834
142200.00,0.014,0,0,405.691,1961.1104,4.834
142400.00,0.005,0,0,405.345,1957.8163,4.83
142600.00,-0.017,0,0,405.494,1958.5359,4.83
142800.00,0.012,0,0,405.748,1959.7627,4.83
143000.00,0.007,0,0,566.529,2671.7507,4.716
143200.00,0.01,0,0,405.247,1958.9641,4.834
143400.00,-0.004,0,0,406.37,1961.9543,4.828
143600.00,-0.005,0,0,405.37,1958.7477,4.832
143800.00,0.001,0,0,404.995,1956.1259,4.83
144000.00,-0.01,0,0,405.859,1959.4873,4.828
144200.00,0.001,0,0,446.325,2144.1453,4.804
144400.00,-0.016,0,0,404.756,1954.9716,4.83
144600.00,0.01,0,0,405.336,1957.7728,4.83
144800.00,0.001,0,0,405.563,1958.8693,4.83
145000.00,-0.031,0,0,565.999,2673.7793,4.724
145200.00,0.005,0,0,405.74,1961.3472,4.834
145400.00,0.007,0,0,358.458,1742.8229,4.862
145600.00,-0.011,0,0,363.469,1767.1863,4.862
145800.00,-0.005,0,0,358.656,1743.0682,4.86
146000.00,0.014,0,0,438.99,2109.7859,4.806
146200.00,0.012,0,0,365.476,1776.9443,4.862
146400.00,-0.001,0,0,367.401,1784.834,4.858
146600.00,-0.01,0,0,361.131,1755.819,4.862
146800.00,0.002,0,0,360.921,1756.2416,4.866
147000.00,-0.006,0,0,361.255,1756.4219,4.862
147200.00,0.007,0,0,422.394,2037.6287,4.824
147400.00,0.002,0,0,361.031,1754.6107,4.86
147600.00,0.004,0,0,364.603,1771.9706,4.86
147800.00,-0.007,0,0,358.679,1746.0493,4.868
148000.00,-0.001,0,0,411.266,1986.4147,4.83
148200.00,-0.009,0,0,412.932,1991.984,4.824
148400.00,0,0,0,363.135,1764.8362,4.86
148600.00,0.004,0,0,363.392,1766.0852,4.86
148800.00,0.009,0,0,360.912,1754.754,4.862
149000.00,0.003,0,0,360.776,1754.8145,4.864
149200.00,-0.014,0,0,418.355,2016.4712,4.82
149400.00,-0.005,0,0,368.138,1789.1508,4.86
149600.00,-0.007,0,0,368.514,1790.241,4.858
149800.00,-0.015,0,0,312.819,1530.9362,4.894
150000.00,-0.008,0,0,363.935,1767.9961,4.858
150200.00,-0.012,0,0,405.265,1959.0511,4.834
150400.00,0.005,0,0,405.858,1961.9176,4.834
150600.00,-0.006,0,0,406.401,1962.9167,4.83
150800.00,0,0,0,405.611,1959.1011,4.83
151000.00,0.011,0,0,405.352,1959.4716,4.834
151200.00,0.005,0,0,405.225,1958.8577,4.834
151400.00,-0.008,0,0,405.521,1959.4774,4.832
151600.00,-0.005,0,0,405.398,1958.8831,4.832
151800.00,0.006,0,0,565.961,2669.072,4.716
152000.00,0.022,0,0,405.065,1956.464,4.83
152200.00,-0.008,0,0,404.998,1956.9502,4.832
152400.00,-0.002,0,0,446.463,2143.9155,4.802
152600.00,0.005,0,0,405.747,1959.7581,4.83
152800.00,0.017,0,0,405.747,1960.5695,4.832
153000.00,-0.006,0,0,405.685,1961.0813,4.834
153200.00,0,0,0,405.463,1959.1971,4.832
153400.00,-0.012,0,0,448.804,2154.2593,4.8
153600.00,0.011,0,0,405.885,1960.4246,4.83
153800.00,-0.01,0,0,564.743,2664.4573,4.718
154000.00,-0.001,0,0,405.498,1959.3662,4.832
154200.00,0.018,0,0,408.781,1975.2297,4.832
154400.00,0.008,0,0,405.256,1957.3865,4.83
154600.00,0.003,0,0,405.75,1960.5839,4.832
154800.00,-0.029,0,0,405.646,1960.0814,4.832
155000.00,0.01,0,0,405.745,1960.5597,4.832
155200.00,0.008,0,0,366.141,1779.4453,4.86
155400.00,0.004,0,0,437.183,2101.9761,4.808
155600.00,-0.008,0,0,365.825,1777.1779,4.858
155800.00,-0.006,0,0,363.098,1763.2039,4.856
156000.00,0.006,0,0,363.455,1767.1182,4.862
156200.00,0.011,0,0,360.587,1753.8951,4.864
156400.00,-0.008,0,0,361.006,1755.9332,4.864
156600.00,-0.028,0,0,428.351,2062.0818,4.814
156800.00,-0.003,0,0,360.717,1753.8062,4.862
157000.00,0.002,0,0,360.705,1754.469,4.864
157200.00,0,0,0,363.013,1764.2433,4.86
157400.00,-0.017,0,0,360.297,1751.764,4.862
157600.00,-0.012,0,0,417.218,2013.4941,4.826
157800.00,0.009,0,0,405.197,1958.7223,4.834
158000.00,-0.023,0,0,405.506,1958.594,4.83
158200.00,-0.005,0,0,408.246,1971.8281,4.83
158400.00,-0.012,0,0,447.913,2149.9824,4.8
158600.00,-0.005,0,0,448.126,2151.9011,4.802
158800.00,-0.004,0,0,448.447,2153.4424,4.802
159000.00,-0.011,0,0,448.192,2152.218,4.802
159200.00,-0.004,0,0,448.439,2152.5073,4.8
159400.00,0.004,0,0,611.951,2868.8264,4.688
159600.00,0.006,0,0,448.204,2151.3794,4.8
159800.00,0.022,0,0,449.772,2158.9058,4.8
160000.00,0.003,0,0,448.328,2151.9746,4.8
160200.00,-0.003,0,0,455.387,2184.9468,4.798
160400.00,-0.006,0,0,404.893,1954.8235,4.828
160600.00,0.01,0,0,446.325,2144.1453,4.804
160800.00,-0.003,0,0,406.189,1962.7051,4.832
161000.00,-0.01,0,0,450.278,2161.3345,4.8
161200.00,-0.003,0,0,405.108,1957.4818,4.832
161400.00,-0.005,0,0,435.888,2102.7236,4.824
161600.00,0.009,0,0,560.205,2644.1675,4.72
161800.00,-0.003,0,0,405.606,1959.8881,4.832
162000.00,0,0,0,405.545,1960.4047,4.834
162200.00,0.012,0,0,405.446,1959.1151,4.832
162400.00,0,0,0,405.668,1959.3765,4.83
162600.00,0.011,0,0,405.52,1958.6615,4.83
162800.00,0.02,0,0,366.127,1780.1095,4.862
163000.00,-0.007,0,0,414.179,1996.3428,4.82
163200.00,-0.006,0,0,358.815,1745.9939,4.866
163400.00,-0.008,0,0,408.415,1971.0109,4.826
163600.00,0.016,0,0,365.684,1776.4928,4.858
163800.00,0,0,0,313.207,1534.0878,4.898
164000.00,0.003,0,0,438.603,2107.926,4.806
164200.00,0,0,0,365.776,1777.6714,4.86
164400.00,0,0,0,365.874,1778.8794,4.862
164600.00,-0.021,0,0,360.691,1754.401,4.864
164800.00,-0.006,0,0,363.394,1766.8217,4.862
165000.00,0,0,0,362.912,1763.7523,4.86
165200.00,0.006,0,0,416.548,2007.7615,4.82
165400.00,0.024,0,0,370.576,1799.517,4.856
165600.00,-0.012,0,0,405.359,1958.6946,4.832
165800.00,-0.015,0,0,405.384,1960.437,4.836
166000.00,-0.002,0,0,405.005,1956.9841,4.832
166200.00,0.006,0,0,405.893,1960.4631,4.83
166400.00,0.006,0,0,405.733,1960.5018,4.832
166600.00,0.016,0,0,566.348,2670.8972,4.716
166800.00,0.001,0,0,405.325,1957.7197,4.83
167000.00,-0.002,0,0,405.17,1956.9712,4.83
167200.00,-0.023,0,0,405.108,1958.2921,4.834
167400.00,0.018,0,0,406.799,1966.4664,4.834
167600.00,-0.004,0,0,405.224,1958.0422,4.832
167800.00,0,0,0,404.29,1953.5292,4.832
168000.00,0.003,0,0,405.764,1959.8401,4.83
168200.00,0.012,0,0,405.208,1957.1547,4.83
168400.00,0.01,0,0,405.455,1958.3475,4.83
168600.00,0.003,0,0,612.828,2872.9377,4.688
168800.00,0.007,0,0,558.886,2640.1775,4.724
169000.00,-0.004,0,0,405.31,1957.6472,4.83
169200.00,0.016,0,0,405.335,1959.3894,4.834
169400.00,0.003,0,0,405.767,1961.4777,4.834
169600.00,-0.008,0,0,406.117,1961.545,4.83
169800.00,0.012,0,0,405.352,1959.4716,4.834
170000.00,0.015,0,0,406.067,1962.1156,4.832
170200.00,0,0,0,405.87,1960.3521,4.83
170400.00,0.005,0,0,405.265,1959.0511,4.834
170600.00,0.012,0,0,412.25,1991.1675,4.83
170800.00,-0.01,0,0,405.376,1957.1554,4.828
171000.00,0,0,0,405.105,1957.4673,4.832
171200.00,-0.004,0,0,406.561,1963.6896,4.83
171400.00,-0.002,0,0,405.043,1957.1677,4.832
171600.00,0.003,0,0,446.669,2145.7979,4.804
171800.00,0.001,0,0,405.463,1957.5754,4.828
172000.00,0.012,0,0,405.463,1957.5754,4.828
172200.00,-0.005,0,0,405.722,1958.8258,4.828
172400.00,-0.003,0,0,565.675,2668.8545,4.718
172600.00,0.007,0,0,405.344,1959.4329,4.834
172800.00,-0.013,0,0,406.208,1961.9846,4.83
173000.00,-0.015,0,0,406.055,1961.2456,4.83
173200.00,0.003,0,0,405.278,1957.4928,4.83
173400.00,0.002,0,0,406.044,1962.8168,4.834
173600.00,0.008,0,0,406.303,1964.0688,4.834
173800.00,0.001,0,0,405.267,1958.25,4.832
174000.00,0.005,0,0,405.748,1959.7627,4.83
174200.00,-0.003,0,0,411.24,1986.2891,4.83
174400.00,-0.014,0,0,428.8,2067.6736,4.822
174600.00,-0.031,0,0,569.603,2685.1089,4.714
174800.00,-0.012,0,0,405.329,1957.7391,4.83
175000.00,0.001,0,0,406.044,1962.8168,4.834
175200.00,0.024,0,0,406.242,1963.7739,4.834
175400.00,-0.005,0,0,405.679,1960.2407,4.832
175600.00,-0.01,0,0,459.753,2203.1362,4.792
175800.00,-0.011,0,0,405.876,1961.1927,4.832
176000.00,-0.007,0,0,405.58,1958.1403,4.828
176200.00,0.004,0,0,575.194,2702.2612,4.698
176400.00,-0.02,0,0,405.449,1959.1295,4.832
176600.00,0.002,0,0,406.448,1963.1438,4.83
176800.00,-0.001,0,0,405.782,1961.5503,4.834
177000.00,0.002,0,0,405.034,1956.3142,4.83
177200.00,0.001,0,0,405.565,1958.8789,4.83
177400.00,0,0,0,405.572,1959.7238,4.832
177600.00,0.008,0,0,405.474,1960.0614,4.834
177800.00,-0.018,0,0,405.782,1960.7386,4.832
178000.00,0.024,0,0,405.72,1961.2505,4.834
178200.00,0,0,0,568.137,2675.9253,4.71
178400.00,0.017,0,0,405.383,1957.9999,4.83
178600.00,0.004,0,0,405.383,1959.6215,4.834
178800.00,0.002,0,0,405.913,1962.9952,4.836
179000.00,0.012,0,0,405.103,1958.2679,4.834
179200.00,0.013,0,0,405.572,1959.7238,4.832
179400.00,0.001,0,0,404.98,1956.8633,4.832
179600.00,-0.004,0,0,405.597,1959.8445,4.832
179800.00,-0.021,0,0,446.454,2144.7651,4.804
180000.00,0.012,0,0,405.629,1959.9993,4.832
180200.00,0.002,0,0,406.814,1964.9116,4.83
180400.00,0,0,0,565.988,2670.3313,4.718
180600.00,-0.024,0,0,405.272,1957.4637,4.83
180800.00,0.002,0,0,358.762,1743.5834,4.86
181000.00,-0.014,0,0,313.134,1533.104,4.896
181200.00,-0.017,0,0,363.89,1769.2333,4.862
181400.00,-0.012,0,0,363.417,1765.4797,4.858
181600.00,0.002,0,0,431.49,2077.1929,4.814
181800.00,-0.013,0,0,359.073,1746.531,4.864
182000.00,-0.012,0,0,368.879,1791.2764,4.856
182200.00,0.012,0,0,312.652,1530.7443,4.896
182400.00,-0.002,0,0,429.68,2069.3389,4.816
182600.00,0,0,0,362.937,1764.5997,4.862
182800.00,-0.009,0,0,365.899,1777.5372,4.858
183000.00,0.023,0,0,313.627,1534.8906,4.894
183200.00,0.016,0,0,406.606,1963.9069,4.83
183400.00,0.028,0,0,427.191,2057.3518,4.816
183600.00,0.001,0,0,365.645,1776.3033,4.858
183800.00,-0.011,0,0,367.928,1786.6584,4.856
184000.00,0.005,0,0,314.12,1537.9315,4.896
184200.00,0.01,0,0,363.29,1766.316,4.862
184400.00,0,0,0,428.643,2061.7729,4.81
184600.00,0,0,0,365.809,1777.8318,4.86
184800.00,-0.01,0,0,368.283,1788.3822,4.856
185000.00,0.021,0,0,313.299,1534.5385,4.898
185200.00,-0.004,0,0,429.227,2067.1572,4.816
185400.00,0.024,0,0,363.032,1764.3356,4.86
185600.00,0,0,0,368.993,1794.0441,4.862
185800.00,-0.006,0,0,318.07,1557.2708,4.896
186000.00,0.006,0,0,312.689,1531.5507,4.898
186200.00,0.017,0,0,427.22,2054.9282,4.81
186400.00,0,0,0,363.344,1765.8518,4.86
186600.00,-0.008,0,0,362.838,1763.3928,4.86
186800.00,-0.011,0,0,361.691,1759.265,4.864
187000.00,0.013,0,0,314.892,1541.7112,4.896
187200.00,0.018,0,0,431,2074.834,4.814
187400.00,-0.004,0,0,363.263,1766.1847,4.862
187600.00,0.018,0,0,365.3,1775.358,4.86
187800.00,0.008,0,0,362.925,1765.2671,4.864
188000.00,0.001,0,0,353.089,1718.8372,4.868
188200.00,-0.015,0,0,426.792,2056.2837,4.818
188400.00,-0.007,0,0,363.863,1766.191,4.854
188600.00,-0.01,0,0,363.221,1765.2542,4.86
188800.00,-0.012,0,0,360.647,1754.187,4.864
189000.00,0.012,0,0,361.585,1757.3031,4.86
189200.00,0.024,0,0,365.189,1775.549,4.862
189400.00,-0.019,0,0,311.61,1526.2656,4.898
189600.00,-0.015,0,0,312.955,1532.8534,4.898
189800.00,-0.013,0,0,363.318,1765.7255,4.86
190000.00,-0.013,0,0,365.046,1774.1235,4.86
190200.00,-0.002,0,0,407.104,1967.1265,4.832
190400.00,0.004,0,0,404.821,1956.0951,4.832
190600.00,-0.012,0,0,404.981,1956.0581,4.83
190800.00,0.022,0,0,491.217,2343.1052,4.77
191000.00,0.001,0,0,404.977,1956.0388,4.83
191200.00,0.002,0,0,405.656,1960.9412,4.834
191400.00,-0.026,0,0,404.301,1954.3911,4.834
191600.00,0.01,0,0,404.918,1956.5637,4.832
191800.00,0.003,0,0,405.182,1958.6499,4.834
192000.00,-0.002,0,0,565.473,2667.9016,4.718
192200.00,0.009,0,0,405.256,1958.1969,4.832
192400.00,-0.009,0,0,404.836,1955.3578,4.83
192600.00,0.003,0,0,405.528,1959.5112,4.832
192800.00,0.024,0,0,405.105,1958.2777,4.834
193000.00,-0.017,0,0,405.636,1959.2218,4.83
193200.00,0.004,0,0,404.685,1954.6285,4.83
193400.00,-0.012,0,0,405.796,1961.6179,4.834
193600.00,-0.016,0,0,405.969,1962.4541,4.834
193800.00,-0.018,0,0,404.977,1957.6588,4.834
194000.00,-0.002,0,0,565.931,2667.7991,4.714
194200.00,-0.003,0,0,405.236,1957.2898,4.83
194400.00,0.007,0,0,405.137,1957.6218,4.832
194600.00,0.024,0,0,405.379,1957.1698,4.828
194800.00,0.003,0,0,448.538,2152.9824,4.8
195000.00,-0.018,0,0,405.392,1958.0433,4.83
195200.00,-0.004,0,0,359.087,1745.881,4.862
195400.00,-0.001,0,0,368.306,1789.9672,4.86
195600.00,-0.004,0,0,361.918,1761.093,4.866
195800.00,0,0,0,366.009,1779.5358,4.862
196000.00,0.006,0,0,365.749,1776.8086,4.858
196200.00,0.016,0,0,360.393,1752.2308,4.862
196400.00,-0.012,0,0,361.078,1756.2833,4.864
196600.00,-0.004,0,0,417.043,2009.3131,4.818
196800.00,0.015,0,0,360.573,1753.106,4.862
197000.00,0,0,0,370.792,1801.3074,4.858
197200.00,0.004,0,0,313.917,1537.5653,4.898
197400.00,-0.01,0,0,365.615,1775.4264,4.856
197600.00,-0.003,0,0,424.644,2050.1814,4.828
197800.00,0.003,0,0,312.769,1530.066,4.892
198000.00,0.014,0,0,364.333,1771.3871,4.862
198200.00,-0.017,0,0,363.205,1765.1763,4.86
198400.00,-0.004,0,0,460.189,2205.2256,4.792
198600.00,0.004,0,0,360.675,1754.3231,4.864
198800.00,0,0,0,362.983,1765.5493,4.864
199000.00,0.008,0,0,407.71,1968.4238,4.828
199200.00,-0.003,0,0,312.478,1529.2673,4.894
199400.00,-0.01,0,0,437.332,2101.8176,4.806
199600.00,0.014,0,0,363.691,1768.993,4.864
199800.00,-0.012,0,0,312.726,1531.7319,4.898
200000.00,-0.006,0,0,368.498,1789.4261,4.856
200200.00,0,0,0,313.065,1532.7662,4.896
200400.00,0,0,0,428.129,2061.8691,4.816
200600.00,0.014,0,0,368.011,1787.7972,4.858
200800.00,-0.016,0,0,312.559,1531.5391,4.9
201000.00,0.022,0,0,362.865,1764.9752,4.864
201200.00,0,0,0,364.506,1772.2283,4.862
201400.00,0.012,0,0,405.247,1957.343,4.83
201600.00,-0.009,0,0,405.304,1958.4287,4.832
201800.00,0.007,0,0,405.686,1961.0862,4.834
202000.00,0.007,0,0,405.674,1960.2167,4.832
202200.00,0.001,0,0,405.457,1957.5464,4.828
202400.00,-0.005,0,0,405.333,1957.7584,4.83
202600.00,-0.004,0,0,405.284,1958.3322,4.832
202800.00,0.014,0,0,404.906,1956.5057,4.832
203000.00,0,0,0,405.19,1958.6885,4.834
203200.00,0.01,0,0,421.526,2034.2845,4.826
203400.00,0.006,0,0,564.992,2665.6323,4.718
203600.00,-0.001,0,0,405.651,1958.483,4.828
203800.00,-0.01,0,0,405.059,1957.245,4.832
204000.00,-0.001,0,0,405.49,1958.5166,4.83
204200.00,-0.016,0,0,405.404,1959.7229,4.834
204400.00,0,0,0,405.663,1960.975,4.834
204600.00,0.005,0,0,405.404,1958.1012,4.83
204800.00,-0.009,0,0,405.762,1961.4535,4.834
205000.00,-0.003,0,0,405.392,1958.0433,4.83
205200.00,0.002,0,0,405.261,1958.2209,4.832
205400.00,-0.005,0,0,613.297,2876.363,4.69
205600.00,0.02,0,0,405.113,1957.506,4.832
205800.00,-0.002,0,0,405.438,1959.8873,4.834
206000.00,-0.029,0,0,409.128,1973.6334,4.824
206200.00,-0.004,0,0,405.598,1959.8494,4.832
206400.00,-0.007,0,0,370.797,1799.8486,4.854
206600.00,0.009,0,0,370.649,1800.6127,4.858
206800.00,-0.002,0,0,410.465,1981.725,4.828
207000.00,0.006,0,0,370.857,1801.6232,4.858
207200.00,-0.007,0,0,411.391,1985.373,4.826
207400.00,0.01,0,0,360.572,1754.5433,4.866
207600.00,0.009,0,0,368.322,1788.5715,4.856
207800.00,-0.009,0,0,360.319,1751.1504,4.86
208000.00,0.003,0,0,312.646,1530.7147,4.896
208200.00,0.002,0,0,362.929,1765.2865,4.864
208400.00,0.004,0,0,363.324,1766.4813,4.862
208600.00,-0.005,0,0,363.435,1766.2942,4.86
208800.00,0,0,0,417.352,2012.4713,4.822
209000.00,0,0,0,365.631,1776.9668,4.86
209200.00,-0.002,0,0,315.59,1545.1285,4.896
209400.00,-0.005,0,0,363.299,1767.0863,4.864
209600.00,0,0,0,366.162,1780.2795,4.862
209800.00,0.003,0,0,439.935,2115.2075,4.808
210000.00,-0.001,0,0,365.446,1776.7985,4.862
210200.00,0,0,0,368.063,1788.7861,4.86
210400.00,0,0,0,315.442,1543.7731,4.894
210600.00,-0.012,0,0,314.781,1540.5382,4.894
210800.00,0.012,0,0,427.664,2058.7747,4.814
211000.00,-0.012,0,0,370.316,1798.2545,4.856
211200.00,0.007,0,0,404.944,1955.8795,4.83
211400.00,0.003,0,0,406.03,1961.1249,4.83
211600.00,0.012,0,0,405.705,1960.3665,4.832
211800.00,0.006,0,0,406.421,1963.0133,4.83
212000.00,-0.002,0,0,405.15,1958.4951,4.834
212200.00,-0.004,0,0,565.539,2667.082,4.716
212400.00,-0.001,0,0,407.948,1970.3888,4.83
212600.00,0.004,0,0,406.081,1961.3712,4.83
212800.00,0.003,0,0,405.551,1960.4336,4.834
213000.00,-0.02,0,0,453.875,2175.8767,4.794
213200.00,-0.006,0,0,405.208,1958.7755,4.834
213400.00,0.005,0,0,406.023,1962.7153,4.834
213600.00,-0.008,0,0,405.662,1960.1587,4.832
213800.00,0.012,0,0,405.736,1961.3279,4.834
214000.00,0.009,0,0,405.304,1958.4287,4.832
214200.00,-0.002,0,0,565.282,2664.7395,4.714
214400.00,-0.005,0,0,405.529,1960.3271,4.834
214600.00,-0.009,0,0,405.299,1957.5942,4.83
214800.00,0.001,0,0,405.484,1958.4877,4.83
215000.00,0.016,0,0,406.155,1961.7286,4.83
215200.00,-0.012,0,0,405.304,1958.4287,4.832
215400.00,-0.01,0,0,447.788,2149.3826,4.8
215600.00,0.001,0,0,405.312,1958.4675,4.832
215800.00,0.019,0,0,405.324,1957.715,4.83
216000.00,0.014,0,0,405.447,1958.309,4.83
216200.00,-0.007,0,0,408.483,1972.156,4.828
216400.00,-0.015,0,0,365.143,1774.5951,4.86
216600.00,-0.005,0,0,365.475,1776.2086,4.86
216800.00,-0.003,0,0,371.423,1802.8873,4.854
217000.00,-0.002,0,0,368.288,1789.1429,4.858
217200.00,-0.008,0,0,449.396,2159.7974,4.806
217400.00,-0.01,0,0,366.111,1779.2994,4.86
217600.00,-0.008,0,0,355.271,1729.4592,4.868
217800.00,0.012,0,0,408.138,1970.4902,4.828
218000.00,0.006,0,0,410.914,1983.071,4.826
218200.00,-0.004,0,0,533.308,2528.9465,4.742
218400.00,0,0,0,403.029,1947.436,4.832
218600.00,0.006,0,0,413.707,1995.7225,4.824
218800.00,0.007,0,0,354.815,1726.5299,4.866
219000.00,0,0,0,405.315,1957.6714,4.83
219200.00,-0.007,0,0,471.919,2259.5483,4.788
219400.00,-0.003,0,0,405.549,1960.424,4.834
219600.00,-0.01,0,0,360.832,1753.6436,4.86
219800.00,0.01,0,0,360.961,1754.9924,4.862
220000.00,0.001,0,0,361.245,1756.3732,4.862
220200.00,-0.008,0,0,417.022,2010.8801,4.822
220400.00,-0.024,0,0,370.249,1797.1886,4.854
220600.00,0.002,0,0,355.809,1732.0781,4.868
220800.00,0.012,0,0,363.152,1764.9188,4.86
221000.00,0,0,0,363.041,1764.3793,4.86
221200.00,-0.019,0,0,420.045,2026.2971,4.824
221400.00,-0.006,0,0,368.163,1789.2722,4.86
221600.00,0,0,0,405.429,1959.0327,4.832
221800.00,0.022,0,0,405.355,1957.8646,4.83
222000.00,0,0,0,405.79,1959.9657,4.83
222200.00,0.003,0,0,405.049,1958.007,4.834
222400.00,-0.012,0,0,405.555,1958.8306,4.83
222600.00,0.023,0,0,404.91,1957.335,4.834
222800.00,0.011,0,0,565.855,2667.4404,4.714
223000.00,-0.018,0,0,405.997,1962.5896,4.834
223200.00,-0.017,0,0,405.441,1957.4692,4.828
223400.00,-0.016,0,0,405.49,1958.5166,4.83
223600.00,0.009,0,0,405.816,1960.0913,4.83
223800.00,-0.001,0,0,405.557,1960.4626,4.834
224000.00,-0.016,0,0,406.277,1963.1304,4.832
224200.00,0,0,0,405.191,1957.8828,4.832
224400.00,0.011,0,0,404.883,1956.3945,4.832
224600.00,-0.009,0,0,405.66,1960.9604,4.834
224800.00,-0.012,0,0,564.822,2667.0896,4.722
225000.00,-0.01,0,0,405.68,1959.4343,4.83
225200.00,-0.006,0,0,405.705,1960.3665,4.832
225400.00,-0.006,0,0,405.73,1958.8645,4.828
225600.00,0.009,0,0,405.433,1958.2415,4.83
225800.00,0.006,0,0,410.55,1981.3143,4.826
226000.00,0,0,0,410.649,1982.6133,4.828
226200.00,-0.027,0,0,405.515,1959.4485,4.832
226400.00,0,0,0,446.773,2144.5105,4.8
226600.00,0.012,0,0,410.328,1980.243,4.826
226800.00,-0.006,0,0,358.519,1743.8364,4.864
227000.00,0.001,0,0,313.158,1532.5952,4.894
227200.00,0.012,0,0,366.954,1781.9287,4.856
227400.00,-0.005,0,0,365.843,1777.9969,4.86
227600.00,0.004,0,0,361.128,1755.082,4.86
227800.00,0.011,0,0,365.818,1777.1438,4.858
228000.00,-0.003,0,0,365.961,1777.1066,4.856
228200.00,-0.013,0,0,408.675,1973.0829,4.828
228400.00,-0.011,0,0,360.753,1755.4241,4.866
228600.00,0.006,0,0,363.196,1765.1327,4.86
228800.00,-0.004,0,0,430.371,2073.5273,4.818
229000.00,-0.011,0,0,363.399,1767.5726,4.864
229200.00,0.013,0,0,370.582,1798.8051,4.854
229400.00,0.02,0,0,405.705,1959.5551,4.83
229600.00,0.002,0,0,405.688,1959.4729,4.83
229800.00,0.005,0,0,405.836,1960.1879,4.83
230000.00,0.014,0,0,563.387,2658.0601,4.718
230200.00,-0.006,0,0,405.54,1959.5692,4.832
230400.00,-0.005,0,0,405.194,1957.8973,4.832
230600.00,0,0,0,405.322,1957.7052,4.83
230800.00,-0.005,0,0,405.754,1958.1688,4.826
231000.00,0,0,0,405.039,1957.1483,4.832
231200.00,0.013,0,0,405.093,1955.7889,4.828
231400.00,0,0,0,405.105,1958.2777,4.834
231600.00,-0.014,0,0,405.685,1959.4585,4.83
231800.00,0,0,0,405.076,1958.1373,4.834
232000.00,-0.003,0,0,566.718,2672.6423,4.716
232200.00,0.016,0,0,405.782,1960.7386,4.832
232400.00,0.018,0,0,405.757,1958.1833,4.826
232600.00,0.012,0,0,406.276,1962.3131,4.83
232800.00,0.015,0,0,405.19,1957.0676,4.83
233000.00,0.008,0,0,405.523,1958.6761,4.83
233200.00,-0.005,0,0,405.301,1958.4143,4.832
233400.00,-0.003,0,0,405.918,1962.2076,4.834
233600.00,0.002,0,0,406.132,1963.2421,4.834
233800.00,0.024,0,0,405.256,1957.3865,4.83
234000.00,0.016,0,0,598.177,2806.6465,4.692
234200.00,0.002,0,0,404.758,1954.9811,4.83
234400.00,-0.007,0,0,405.079,1956.5316,4.83
234600.00,-0.021,0,0,407.275,1966.3237,4.828
234800.00,0,0,0,358.661,1745.2445,4.866
235000.00,0.015,0,0,365.703,1775.8538,4.856
235200.00,-0.006,0,0,457.885,2196.9321,4.798
235400.00,-0.012,0,0,368.574,1790.5325,4.858
235600.00,0.012,0,0,358.799,1745.916,4.866
235800.00,0.001,0,0,375.929,1825.5111,4.856
236000.00,-0.001,0,0,371.481,1802.4258,4.852
236200.00,-0.007,0,0,410.322,1980.214,4.826
236400.00,-0.012,0,0,368.351,1789.4491,4.858
236600.00,-0.002,0,0,358.515,1743.817,4.864
236800.00,-0.021,0,0,368.023,1787.8557,4.858
237000.00,0.017,0,0,457.654,2194.9084,4.796
237200.00,0.002,0,0,358.587,1744.1671,4.864
237400.00,-0.005,0,0,359.242,1747.353,4.864
237600.00,-0.013,0,0,368.226,1788.8419,4.858
237800.00,0.003,0,0,368.152,1787.7461,4.856
238000.00,-0.014,0,0,408.517,1972.3201,4.828
238200.00,-0.009,0,0,312.991,1531.778,4.894
238400.00,-0.003,0,0,370.326,1798.303,4.856
238600.00,0.016,0,0,373.905,1815.6826,4.856
238800.00,0.016,0,0,359.996,1751.0205,4.864
239000.00,0.006,0,0,419.699,2023.7886,4.822
239200.00,-0.005,0,0,360.729,1754.5858,4.864
239400.00,0.001,0,0,363.279,1766.2625,4.862
239600.00,0.02,0,0,368.462,1789.2515,4.856
239800.00,0.018,0,0,312.701,1530.984,4.896
240000.00,-0.012,0,0,426.269,2051.2063,4.812
240200.00,0.005,0,0,312.775,1531.9718,4.898
240400.00,-0.011,0,0,366.819,1782.7404,4.86
240600.00,0.016,0,0,312.75,1530.5985,4.894
240800.00,0.004,0,0,365.795,1776.3005,4.856
241000.00,0.004,0,0,435.702,2095.7266,4.81
241200.00,-0.012,0,0,370.053,1791.7966,4.842
241400.00,0,0,0,363.036,1764.3551,4.86
241600.00,0,0,0,364.282,1771.8677,4.864
241800.00,0.008,0,0,312.646,1531.34,4.898
242000.00,0.003,0,0,431.14,2076.3704,4.816
242200.00,0,0,0,362.646,1762.4596,4.86
242400.00,0.009,0,0,363.073,1765.2609,4.862
242600.00,0,0,0,360.252,1752.2657,4.864
242800.00,0.014,0,0,451.096,2166.1631,4.802
243000.00,0,0,0,419.934,2024.9218,4.822
243200.00,0.012,0,0,360.721,1753.8256,4.862
243400.00,-0.004,0,0,362.528,1761.8862,4.86
243600.00,0,0,0,363.195,1766.5804,4.864
243800.00,-0.004,0,0,363.244,1766.8187,4.864
244000.00,0,0,0,422.769,2040.2833,4.826
244200.00,-0.009,0,0,562.98,2655.0137,4.716
244400.00,-0.005,0,0,405.13,1957.5881,4.832
244600.00,0.012,0,0,405.093,1957.4092,4.832
244800.00,0.012,0,0,405.574,1959.7335,4.832
245000.00,0.011,0,0,405.273,1957.4686,4.83
245200.00,-0.003,0,0,404.824,1956.1095,4.832
245400.00,0,0,0,405.606,1959.0769,4.83
245600.00,-0.007,0,0,447.077,2146.8638,4.802
245800.00,-0.007,0,0,405.858,1961.1058,4.832
246000.00,0.003,0,0,407.939,1970.3453,4.83
246200.00,0.002,0,0,565.314,2668.282,4.72
246400.00,0.021,0,0,404.952,1956.7279,4.832
246600.00,0.012,0,0,405.17,1956.9712,4.83
246800.00,-0.005,0,0,405.194,1958.7079,4.834
247000.00,0.016,0,0,405.98,1960.8834,4.83
247200.00,0.005,0,0,406.029,1962.7441,4.834
247400.00,0.002,0,0,405.399,1958.8878,4.832
247600.00,0.014,0,0,405.091,1957.3997,4.832
247800.00,0.012,0,0,405.305,1957.623,4.83
248000.00,0.01,0,0,406.367,1962.7526,4.83
248200.00,0.018,0,0,565.609,2667.4121,4.716
248400.00,-0.024,0,0,404.898,1957.277,4.834
248600.00,-0.005,0,0,458.509,2199.0093,4.796
248800.00,0.007,0,0,408.341,1973.1036,4.832
249000.00,0.012,0,0,407.885,1969.2688,4.828
249200.00,-0.013,0,0,358.636,1743.6881,4.862
249400.00,-0.008,0,0,362.985,1764.833,4.862
249600.00,-0.012,0,0,416.928,2008.759,4.818
249800.00,0.011,0,0,464.28,2223.9011,4.79
250000.00,-0.01,0,0,366.157,1779.5231,4.86
250200.00,-0.02,0,0,312.807,1530.8776,4.894
250400.00,0.012,0,0,408.301,1971.2772,4.828
250600.00,0,0,0,429.343,2068.5745,4.818
250800.00,-0.008,0,0,362.943,1763.903,4.86
251000.00,-0.005,0,0,360.548,1753.7054,4.864
251200.00,0.004,0,0,365.892,1778.2351,4.86
251400.00,0.005,0,0,358.741,1744.9161,4.864
251600.00,0.011,0,0,437.233,2102.2163,4.808
251800.00,-0.003,0,0,365.523,1776.4419,4.86
252000.00,0,0,0,312.763,1531.9131,4.898
252200.00,0,0,0,312.911,1532.6381,4.898
252400.00,0.016,0,0,364.272,1768.9048,4.856
252600.00,-0.001,0,0,365.666,1777.868,4.862
252800.00,0,0,0,365.617,1776.1674,4.858
253000.00,0.008,0,0,358.397,1744.6766,4.868
253200.00,-0.003,0,0,410.628,1982.512,4.828
253400.00,-0.021,0,0,486.534,2320.7671,4.77
253600.00,0.012,0,0,419.469,2021.0016,4.818
253800.00,0.024,0,0,449.604,2157.2,4.798
254000.00,-0.012,0,0,406.037,1961.1586,4.83
254200.00,-0.005,0,0,403.679,1950.5768,4.832
254400.00,-0.014,0,0,474.652,2272.6338,4.788
254600.00,0.002,0,0,406.811,1965.7107,4.832
254800.00,0.011,0,0,405.972,1961.6565,4.832
255000.00,-0.027,0,0,448.46,2151.7109,4.798
255200.00,0.005,0,0,448.768,2154.9839,4.802
255400.00,0.025,0,0,448.505,2153.7209,4.802
255600.00,-0.024,0,0,449.036,2156.271,4.802
255800.00,-0.003,0,0,611.938,2866.3176,4.684
256000.00,0.002,0,0,448.793,2153.3088,4.798
256200.00,0.032,0,0,449.138,2157.6589,4.804
256400.00,-0.002,0,0,404.915,1956.5492,4.832
256600.00,0,0,0,406.067,1962.9279,4.834
256800.00,-0.005,0,0,405.578,1958.9418,4.83
257000.00,0,0,0,405.566,1960.5061,4.834
257200.00,-0.012,0,0,404.838,1955.3676,4.83
257400.00,0,0,0,405.225,1958.0471,4.832
257600.00,0.008,0,0,406.25,1962.1875,4.83
257800.00,0,0,0,565.543,2670.4941,4.722
258000.00,0.012,0,0,448.446,2152.541,4.8
258200.00,0.007,0,0,405.452,1957.5222,4.828
258400.00,0.024,0,0,405.44,1958.2751,4.83
258600.00,-0.02,0,0,405.798,1960.0043,4.83
258800.00,-0.013,0,0,404.914,1956.5443,4.832
259000.00,-0.015,0,0,405.728,1959.6661,4.83
259200.00,0.006,0,0,404.963,1956.7811,4.832
259400.00,0,0,0,405.181,1957.0242,4.83
259600.00,0.002,0,0,405.484,1960.1097,4.834
259800.00,-0.02,0,0,565.887,2670.9866,4.72
260000.00,-0.006,0,0,391.865,1893.4916,4.832
260200.00,0.007,0,0,370.614,1798.2192,4.852
260400.00,-0.001,0,0,370.515,1799.9619,4.858
260600.00,-0.01,0,0,368.257,1788.9924,4.858
260800.00,0.009,0,0,450.3,2162.3406,4.802
261000.00,0,0,0,360.934,1754.8611,4.862
261200.00,-0.02,0,0,370.363,1798.4828,4.856
261400.00,0,0,0,405.151,1956.8793,4.83
261600.00,0.01,0,0,404.744,1954.9135,4.83
261800.00,0.001,0,0,405.521,1958.6664,4.83
262000.00,-0.002,0,0,446.837,2145.7114,4.802
262200.00,-0.006,0,0,564.682,2660.7815,4.712
262400.00,0.004,0,0,406.066,1962.1108,4.832
262600.00,0.004,0,0,405.375,1958.7719,4.832
262800.00,-0.014,0,0,405.333,1957.7584,4.83
263000.00,0.012,0,0,404.988,1956.902,4.832
263200.00,0.021,0,0,405.531,1960.3369,4.834
263400.00,0.004,0,0,405.247,1957.343,4.83
263600.00,-0.014,0,0,405.136,1958.4274,4.834
263800.00,-0.007,0,0,412.967,1992.1528,4.824
264000.00,0.01,0,0,406.032,1961.9467,4.832
264200.00,0,0,0,572.822,2694.5547,4.704
264400.00,-0.008,0,0,556.397,2627.3066,4.722
264600.00,-0.009,0,0,405.151,1958.5,4.834
264800.00,0,0,0,405.455,1959.9695,4.834
265000.00,0.012,0,0,405.615,1959.1204,4.83
265200.00,-0.024,0,0,406.253,1963.0144,4.832
265400.00,0,0,0,410.942,1984.028,4.828
265600.00,0.02,0,0,405.808,1960.8643,4.832
265800.00,0.012,0,0,405.591,1958.1934,4.828
266000.00,-0.005,0,0,408.947,1974.3961,4.828
266200.00,-0.012,0,0,405.608,1958.2755,4.828
266400.00,0.009,0,0,362.058,1761.0502,4.864
266600.00,-0.001,0,0,370.696,1800.8412,4.858
266800.00,0,0,0,312.653,1531.3744,4.898
267000.00,-0.006,0,0,363.237,1766.0582,4.862
267200.00,0.001,0,0,362.209,1761.0602,4.862
267400.00,-0.005,0,0,405.145,1957.6605,4.832
267600.00,0.012,0,0,405.046,1957.1821,4.832
267800.00,0.015,0,0,405.663,1960.975,4.834
268000.00,-0.012,0,0,406.934,1963.8635,4.826
268200.00,-0.002,0,0,405.819,1960.1057,4.83
268400.00,0.016,0,0,405.696,1959.5117,4.83
268600.00,0.005,0,0,404.893,1955.6332,4.83
268800.00,-0.007,0,0,405.609,1958.2803,4.828
269000.00,-0.001,0,0,566.125,2672.1099,4.72
269200.00,0.014,0,0,405.585,1959.7866,4.832
269400.00,-0.01,0,0,405.819,1960.1057,4.83
269600.00,0.005,0,0,405.942,1960.6997,4.83
269800.00,-0.01,0,0,405.453,1959.9598,4.834
270000.00,0.006,0,0,405.424,1958.198,4.83
270200.00,0,0,0,447.855,2150.5999,4.802
270400.00,0.009,0,0,406.239,1963.7594,4.834
270600.00,0.004,0,0,406.103,1963.1019,4.834
270800.00,0.005,0,0,405.634,1960.0234,4.832
271000.00,0.025,0,0,566.348,2670.8972,4.716
271200.00,0.001,0,0,406.037,1949.7897,4.802
271400.00,0.002,0,0,407.226,1966.9016,4.83
271600.00,-0.025,0,0,405.338,1957.7826,4.83
271800.00,0,0,0,405.688,1961.0958,4.834
272000.00,0.011,0,0,405.77,1961.4922,4.834
272200.00,0.012,0,0,405.885,1961.2363,4.832
272400.00,0.002,0,0,358.939,1746.5972,4.866
272600.00,0.004,0,0,453.844,2176.6357,4.796
272800.00,0.01,0,0,358.84,1746.1155,4.866
273000.00,0.012,0,0,406.132,1961.6174,4.83
273200.00,0.007,0,0,359.388,1749.5009,4.868
273400.00,-0.012,0,0,359.043,1746.3851,4.864
273600.00,0.01,0,0,428.82,2065.1973,4.816
273800.00,-0.005,0,0,368.299,1788.46,4.856
274000.00,0.002,0,0,363.338,1765.0959,4.858
274200.00,-0.012,0,0,365.848,1777.2894,4.858
274400.00,0,0,0,368.218,1788.8029,4.858
274600.00,-0.024,0,0,362.282,1762.1396,4.864
274800.00,-0.008,0,0,405.179,1958.6353,4.834
275000.00,-0.008,0,0,405.603,1960.6849,4.834
275200.00,-0.003,0,0,405.171,1957.7861,4.832
275400.00,-0.003,0,0,405.899,1960.4921,4.83
275600.00,0.028,0,0,405.11,1957.4913,4.832
275800.00,0.017,0,0,405.332,1959.3749,4.834
276000.00,0.018,0,0,406.023,1961.9031,4.832
276200.00,0.015,0,0,405.159,1956.1077,4.828
276400.00,-0.026,0,0,405.265,1957.4299,4.83
276600.00,0.006,0,0,405.384,1958.8154,4.832
276800.00,0.01,0,0,567.745,2679.7563,4.72
277000.00,-0.004,0,0,448.566,2154.0139,4.802
277200.00,-0.024,0,0,448.957,2154.9937,4.8
277400.00,0,0,0,448.18,2150.3674,4.798
277600.00,-0.003,0,0,450.41,2162.8689,4.802
277800.00,-0.009,0,0,448.398,2152.3105,4.8
278000.00,-0.009,0,0,448.867,2154.5618,4.8
278200.00,0,0,0,448.525,2153.8171,4.802
278400.00,-0.012,0,0,449.467,2157.4417,4.8
278600.00,0,0,0,448.496,2153.6777,4.802
278800.00,0.002,0,0,613.223,2872.3367,4.684
279000.00,0.004,0,0,405.088,1957.3851,4.832
279200.00,-0.02,0,0,406.396,1962.08,4.828
279400.00,0.004,0,0,405.52,1957.8506,4.828
279600.00,-0.016,0,0,405.404,1957.2905,4.828
279800.00,-0.003,0,0,359.161,1747.6775,4.866
280000.00,0.009,0,0,358.877,1744.1423,4.86
280200.00,-0.019,0,0,384.979,1862.5283,4.838
280400.00,-0.013,0,0,313.312,1533.9756,4.896
280600.00,-0.007,0,0,363.69,1766.8059,4.858
280800.00,0.008,0,0,363.554,1766.1451,4.858
281000.00,0.003,0,0,360.827,1755.0625,4.864
281200.00,0.015,0,0,404.404,1954.08,4.832
281400.00,-0.006,0,0,406.91,1965.3752,4.83
281600.00,-0.009,0,0,405.984,1961.7146,4.832
281800.00,-0.012,0,0,405.182,1957.8394,4.832
282000.00,0,0,0,405.639,1959.2363,4.83
282200.00,0.005,0,0,405.342,1958.6125,4.832
282400.00,0.005,0,0,405.318,1957.6859,4.83
282600.00,-0.001,0,0,405.873,1960.3665,4.83
282800.00,0.015,0,0,566.277,2668.2971,4.712
283000.00,0.001,0,0,406.211,1962.8114,4.832
283200.00,-0.004,0,0,405.441,1958.28,4.83
283400.00,-0.004,0,0,405.93,1960.6418,4.83
283600.00,-0.007,0,0,406.3,1962.429,4.83
283800.00,-0.009,0,0,405.688,1960.2843,4.832
284000.00,0.009,0,0,405.157,1957.7186,4.832
284200.00,0.008,0,0,406.211,1961.1868,4.828
284400.00,0.003,0,0,406.408,1962.1378,4.828
284600.00,0,0,0,406.347,1961.8433,4.828
284800.00,0.01,0,0,565.4,2668.688,4.72
285000.00,0.013,0,0,405.545,1958.7823,4.83
285200.00,-0.001,0,0,405.956,1960.7675,4.83
285400.00,0,0,0,405.285,1957.5265,4.83
285600.00,-0.012,0,0,405.49,1959.3275,4.832
285800.00,0.011,0,0,405.91,1960.5453,4.83
286000.00,-0.01,0,0,405.787,1961.5743,4.834
286200.00,0.018,0,0,405.742,1961.3569,4.834
286400.00,0,0,0,405.668,1959.3765,4.83
286600.00,0.023,0,0,566.056,2670.6523,4.718
286800.00,-0.009,0,0,405.784,1960.7482,4.832
287000.00,-0.004,0,0,405.759,1959.8159,4.83
287200.00,-0.008,0,0,448.607,2152.4163,4.798
287400.00,0.001,0,0,405.623,1959.9702,4.832
287600.00,-0.005,0,0,405.648,1959.2799,4.83
287800.00,0.003,0,0,405.586,1958.9803,4.83
288000.00,0.017,0,0,405.475,1959.2551,4.832
288200.00,-0.003,0,0,405.747,1960.5695,4.832
288400.00,0.014,0,0,405.764,1959.8401,4.83
288600.00,-0.001,0,0,566.119,2669.8174,4.716
288800.00,0.021,0,0,405.356,1958.6801,4.832
289000.00,-0.027,0,0,405.409,1959.7472,4.834
289200.00,-0.003,0,0,406.05,1962.0334,4.832
289400.00,-0.016,0,0,446.588,2145.4087,4.804
289600.00,0.001,0,0,405.495,1959.3517,4.832
289800.00,-0.003,0,0,405.631,1960.0089,4.832
290000.00,0.022,0,0,405.614,1959.1156,4.83
290200.00,-0.01,0,0,405.836,1959.3762,4.828
290400.00,0.017,0,0,406.088,1963.0295,4.834
290600.00,0.012,0,0,566.699,2673.6858,4.718
290800.00,0.003,0,0,405.369,1959.5537,4.834
291000.00,0.018,0,0,405.389,1958.8396,4.832
291200.00,0,0,0,406.104,1961.4823,4.83
291400.00,0.002,0,0,359.394,1747.3737,4.862
291600.00,0.006,0,0,313.442,1534.6119,4.896
291800.00,-0.002,0,0,362.819,1762.5746,4.858
292000.00,-0.01,0,0,368.299,1789.1965,4.858
292200.00,-0.016,0,0,352.996,1719.0905,4.87
292400.00,-0.008,0,0,366.25,1780.7075,4.862
292600.00,0.032,0,0,313.109,1533.6079,4.898
292800.00,-0.017,0,0,360.203,1750.5867,4.86
293000.00,-0.002,0,0,405.676,1960.2263,4.832
293200.00,0.002,0,0,405.17,1957.7814,4.832
293400.00,0,0,0,405.922,1960.6033,4.83
293600.00,-0.003,0,0,405.757,1959.8063,4.83
293800.00,0.004,0,0,405.362,1957.8984,4.83
294000.00,-0.014,0,0,405.631,1960.0089,4.832
294200.00,0.009,0,0,448.912,2153.8796,4.798
294400.00,-0.004,0,0,406.1,1960.6509,4.828
294600.00,0,0,0,565.423,2667.6655,4.718
294800.00,0.012,0,0,405.194,1957.8973,4.832
295000.00,0.001,0,0,406.12,1962.3717,4.832
295200.00,0.009,0,0,406.145,1961.6803,4.83
295400.00,-0.01,0,0,405.528,1958.7003,4.83
295600.00,0.005,0,0,405.659,1960.1442,4.832
295800.00,0.012,0,0,405.486,1959.3082,4.832
296000.00,-0.002,0,0,406.083,1963.0052,4.834
296200.00,-0.01,0,0,405.774,1959.8883,4.83
296400.00,-0.01,0,0,405.725,1960.4631,4.832
296600.00,0,0,0,567.437,2679.4377,4.722
296800.00,0,0,0,407.494,1967.381,4.828
297000.00,0.009,0,0,405.69,1960.2939,4.832
297200.00,0.032,0,0,405.603,1959.0625,4.83
297400.00,0.001,0,0,405.665,1960.1732,4.832
297600.00,0.014,0,0,445.077,2137.2598,4.802
297800.00,0.011,0,0,405.594,1959.0189,4.83
298000.00,0.016,0,0,358.913,1746.4707,4.866
298200.00,-0.006,0,0,409.844,1979.5465,4.83
298400.00,-0.012,0,0,368.464,1789.2611,4.856
298600.00,-0.035,0,0,313.159,1532.6001,4.894
298800.00,0.013,0,0,363.484,1767.2593,4.862
299000.00,0.008,0,0,363.486,1767.2689,4.862
299200.00,0.004,0,0,418.367,2017.3657,4.822
299400.00,0.011,0,0,365.534,1776.4952,4.86
299600.00,-0.012,0,0,368.175,1788.594,4.858
299800.00,0.008,0,0,317.626,1554.4617,4.894
300000.00,0.018,0,0,428.223,2063.1782,4.818
300200.00,-0.023,0,0,363.295,1765.6138,4.86
300400.00,0.006,0,0,408.818,1973.7733,4.828
300600.00,0.011,0,0,313.269,1535.0182,4.9
300800.00,-0.02,0,0,363.117,1764.0223,4.858
301000.00,0.012,0,0,437.961,2104.8406,4.806
301200.00,-0.001,0,0,365.961,1777.8385,4.858
301400.00,-0.007,0,0,363.425,1766.2455,4.86
301600.00,-0.006,0,0,361.389,1756.3506,4.86
301800.00,-0.008,0,0,365.054,1773.4321,4.858
302000.00,-0.019,0,0,361.495,1758.3116,4.864
302200.00,-0.001,0,0,419.526,2021.2762,4.818
302400.00,0.002,0,0,362.284,1760.7003,4.86
302600.00,-0.003,0,0,365.975,1777.9065,4.858
302800.00,0.002,0,0,368.295,1789.1771,4.858
303000.00,-0.002,0,0,313.176,1533.3097,4.896
303200.00,0,0,0,566.111,2674.3083,4.724
303400.00,-0.012,0,0,405.103,1957.4576,4.832
303600.00,0.012,0,0,405.634,1960.8348,4.834
303800.00,0.018,0,0,405.276,1957.483,4.83
304000.00,0,0,0,405.355,1957.8646,4.83
304200.00,0.02,0,0,404.873,1956.3462,4.832
304400.00,0.003,0,0,405.211,1958.79,4.834
304600.00,0,0,0,405.458,1958.3622,4.83
304800.00,0.012,0,0,405.125,1955.9435,4.828
305000.00,0.002,0,0,405.742,1959.7339,4.83
305200.00,0.009,0,0,565.623,2668.6091,4.718
305400.00,-0.006,0,0,405.076,1956.517,4.83
305600.00,0,0,0,404.915,1955.7395,4.83
305800.00,-0.009,0,0,406.05,1962.8457,4.834
306000.00,0.002,0,0,405.737,1961.3326,4.834
306200.00,0.006,0,0,405.959,1959.9701,4.828
306400.00,-0.01,0,0,405.318,1956.8752,4.828
306600.00,-0.016,0,0,405.959,1960.782,4.83
306800.00,0.019,0,0,405.676,1960.2263,4.832
307000.00,-0.008,0,0,406.256,1960.5916,4.826
307200.00,0,0,0,405.861,1961.1202,4.832
307400.00,0,0,0,566.423,2672.3835,4.718
307600.00,-0.001,0,0,405.824,1960.1299,4.83
307800.00,0.004,0,0,405.293,1956.7546,4.828
308000.00,0.029,0,0,406.165,1962.5892,4.832
308200.00,0,0,0,357.933,1740.9861,4.864
308400.00,-0.006,0,0,359.143,1746.1533,4.862
308600.00,-0.004,0,0,405.264,1957.4252,4.83
308800.00,-0.005,0,0,313.232,1533.5839,4.896
309000.00,-0.01,0,0,365.345,1776.3074,4.862
309200.00,0.021,0,0,363.901,1768.559,4.86
309400.00,-0.001,0,0,361.884,1760.2037,4.864
309600.00,-0.007,0,0,363.859,1768.3549,4.86
309800.00,0.009,0,0,313.145,1533.7841,4.898
310000.00,-0.012,0,0,364.266,1769.6041,4.858
310200.00,0.03,0,0,363.18,1765.7811,4.862
310400.00,-0.006,0,0,363.605,1768.5747,4.864
310600.00,0.01,0,0,366.005,1778.7844,4.86
310800.00,-0.012,0,0,313.059,1532.1107,4.894
311000.00,-0.002,0,0,312.973,1531.6898,4.894
311200.00,-0.006,0,0,363.302,1766.3744,4.862
311400.00,0.019,0,0,360.532,1753.6277,4.864
311600.00,-0.004,0,0,405.271,1958.2694,4.832
311800.00,0.006,0,0,405.313,1957.6617,4.83
312000.00,0.004,0,0,405.202,1956.3153,4.828
312200.00,0.009,0,0,405.893,1962.0868,4.834
312400.00,0.001,0,0,404.91,1956.525,4.832
312600.00,0,0,0,405.639,1960.0476,4.832
312800.00,-0.003,0,0,410.637,1982.5554,4.828
313000.00,0.006,0,0,410.563,1981.3771,4.826
313200.00,-0.017,0,0,405.922,1960.6033,4.83
313400.00,-0.01,0,0,566.448,2670.2361,4.714
313600.00,-0.003,0,0,405.194,1956.2766,4.828
313800.00,0.015,0,0,405.742,1959.7339,4.83
314000.00,-0.002,0,0,405.606,1959.8881,4.832
314200.00,-0.011,0,0,406.211,1961.9991,4.83
314400.00,-0.004,0,0,405.71,1959.5792,4.83
314600.00,0.004,0,0,405.507,1958.5988,4.83
314800.00,-0.023,0,0,405.162,1958.5531,4.834
315000.00,0.029,0,0,405.717,1960.4246,4.832
315200.00,0.006,0,0,406.162,1962.5746,4.832
315400.00,0.001,0,0,562.095,2650.8398,4.716
315600.00,-0.008,0,0,405.66,1958.5265,4.828
315800.00,0.002,0,0,406.327,1961.7467,4.828
316000.00,0.014,0,0,405.821,1960.927,4.832
316200.00,-0.006,0,0,406.228,1963.7062,4.834
316400.00,-0.015,0,0,405.608,1959.0867,4.83
316600.00,-0.009,0,0,362.416,1762.7913,4.864
316800.00,-0.009,0,0,404.357,1954.6617,4.834
317000.00,-0.006,0,0,476.575,2279.9348,4.784
317200.00,-0.008,0,0,363.83,1768.9414,4.862
317400.00,0,0,0,363.392,1765.3583,4.858
317600.00,0.003,0,0,358.172,1742.1486,4.864
317800.00,0,0,0,363.398,1766.8411,4.862
318000.00,0.004,0,0,429.964,2068.9866,4.812
318200.00,0.012,0,0,363.793,1768.0341,4.86
318400.00,-0.006,0,0,361.145,1755.887,4.862
318600.00,0.026,0,0,370.857,1800.1399,4.854
318800.00,0.005,0,0,313.097,1533.549,4.898
319000.00,-0.013,0,0,564.947,2667.6799,4.722
319200.00,-0.002,0,0,405.517,1959.458,4.832
319400.00,-0.005,0,0,405.69,1960.2939,4.832
319600.00,-0.006,0,0,405.966,1960.0039,4.828
319800.00,0.007,0,0,405.41,1959.752,4.834
320000.00,-0.007,0,0,405.497,1958.5505,4.83
320200.00,-0.001,0,0,405.336,1958.5835,4.832
320400.00,0.001,0,0,405.595,1958.2126,4.828
320600.00,-0.018,0,0,406.299,1962.4242,4.83
320800.00,-0.013,0,0,405.835,1961.8064,4.834
321000.00,-0.009,0,0,565.123,2667.3804,4.72
321200.00,-0.011,0,0,405.255,1957.3816,4.83
321400.00,-0.009,0,0,407.866,1969.1771,4.828
321600.00,-0.004,0,0,406.101,1961.4679,4.83
321800.00,0.02,0,0,405.225,1957.2367,4.83
322000.00,-0.01,0,0,405.546,1959.5981,4.832
322200.00,-0.002,0,0,404.941,1957.4849,4.834
322400.00,-0.01,0,0,405.983,1960.8978,4.83
322600.00,0.008,0,0,405.551,1958.8113,4.83
322800.00,0.002,0,0,405.842,1961.0286,4.832
323000.00,0,0,0,565.948,2672.4065,4.722
323200.00,-0.008,0,0,405.077,1956.5219,4.83
323400.00,0.018,0,0,405.961,1960.7916,4.83
323600.00,0,0,0,407.676,1967.4445,4.826
323800.00,0,0,0,406.104,1963.1068,4.834
324000.00,0.01,0,0,368.637,1789.364,4.854
324200.00,0.004,0,0,368.593,1789.8876,4.856
324400.00,-0.003,0,0,409.663,1976.2142,4.824
324600.00,0,0,0,410.91,1983.0518,4.826
324800.00,-0.003,0,0,368.242,1788.9196,4.858
325000.00,-0.004,0,0,410.782,1982.4341,4.826
325200.00,0.004,0,0,405.068,1956.4784,4.83
325400.00,0.004,0,0,565.266,2668.0554,4.72
325600.00,0,0,0,518.482,2458.6416,4.742
325800.00,0,0,0,405.278,1957.4928,4.83
326000.00,-0.008,0,0,405.13,1957.5881,4.832
326200.00,-0.01,0,0,405.179,1957.0145,4.83
326400.00,0.015,0,0,405.327,1956.9188,4.828
326600.00,0.022,0,0,405.335,1958.5786,4.832
326800.00,0.001,0,0,405.416,1958.1592,4.83
327000.00,0,0,0,406.984,1964.9188,4.828
327200.00,-0.024,0,0,405.865,1961.9514,4.834
327400.00,0.007,0,0,405.557,1959.6514,4.832
327600.00,0,0,0,565.143,2669.7356,4.724
327800.00,0.007,0,0,446.551,2142.5515,4.798
328000.00,0,0,0,405.922,1960.6033,4.83
328200.00,-0.021,0,0,405.503,1959.3904,4.832
328400.00,0,0,0,405.997,1961.7775,4.832
328600.00,-0.009,0,0,405.293,1959.1864,4.834
328800.00,0.011,0,0,406.297,1963.2271,4.832
329000.00,-0.02,0,0,406.112,1963.1455,4.834
329200.00,-0.011,0,0,406.223,1962.057,4.83
329400.00,0,0,0,405.359,1958.6946,4.832
329600.00,0.005,0,0,560.674,2643.0173,4.714
329800.00,0.011,0,0,406.502,1965.0308,4.834
330000.00,-0.001,0,0,405.639,1960.859,4.834
330200.00,-0.025,0,0,359.081,1747.2882,4.866
330400.00,-0.005,0,0,318.23,1558.0541,4.896
330600.00,0.012,0,0,313.059,1533.3629,4.898
330800.00,-0.019,0,0,363.438,1767.0355,4.862
331000.00,0,0,0,406.226,1962.884,4.832
331200.00,-0.006,0,0,405.597,1959.0334,4.83
331400.00,-0.012,0,0,405.054,1955.6007,4.828
331600.00,0.007,0,0,452.31,2170.1833,4.798
331800.00,-0.005,0,0,405.75,1959.7725,4.83
332000.00,0.001,0,0,405.75,1959.7725,4.83
332200.00,-0.015,0,0,410.694,1981.1879,4.824
332400.00,0.004,0,0,566.014,2671.5859,4.72
332600.00,0.028,0,0,406.128,1962.4104,4.832
332800.00,0.005,0,0,406.083,1961.3809,4.83
333000.00,-0.002,0,0,405.811,1961.6904,4.834
333200.00,0.001,0,0,405.335,1958.5786,4.832
333400.00,0.012,0,0,405.446,1959.1151,4.832
333600.00,-0.012,0,0,406.063,1962.0963,4.832
333800.00,0.014,0,0,405.956,1959.9556,4.828
334000.00,0.001,0,0,405.487,1960.1241,4.834
334200.00,-0.009,0,0,407.413,1968.6195,4.832
334400.00,-0.012,0,0,566.402,2673.4172,4.72
334600.00,-0.008,0,0,407.178,1965.0411,4.826
334800.00,-0.001,0,0,405.233,1958.8964,4.834
335000.00,-0.014,0,0,405.48,1959.2793,4.832
335200.00,-0.002,0,0,405.761,1959.8256,4.83
335400.00,-0.001,0,0,406.229,1963.7111,4.834
335600.00,0.008,0,0,406.982,1964.9091,4.828
335800.00,0,0,0,405.781,1959.9222,4.83
336000.00,0.005,0,0,399.66,1931.9565,4.834
336200.00,0.008,0,0,474.888,2272.814,4.786
336400.00,-0.012,0,0,405.912,1959.743,4.828
336600.00,0.011,0,0,406.072,1959.7035,4.826
336800.00,0.004,0,0,403.147,1948.0062,4.832
337000.00,-0.008,0,0,355.586,1730.9927,4.868
337200.00,0.006,0,0,473.943,2266.3955,4.782
337400.00,-0.007,0,0,405.784,1959.9366,4.83
337600.00,-0.021,0,0,407.726,1970.132,4.832
337800.00,0.012,0,0,403.974,1951.1943,4.83
338000.00,0,0,0,403.505,1950.5432,4.834
338200.00,-0.01,0,0,420.247,2027.2715,4.824
338400.00,0.006,0,0,366.231,1779.15,4.858
338600.00,-0.035,0,0,367.343,1784.5521,4.858
338800.00,-0.022,0,0,360.975,1756.5044,4.866
339000.00,0,0,0,370.799,1799.8584,4.854
339200.00,-0.01,0,0,405.49,1957.7057,4.828
339400.00,0.006,0,0,370.89,1800.3002,4.854
339600.00,0.004,0,0,408.366,1973.2244,4.832
339800.00,-0.004,0,0,405.046,1957.9923,4.834
340000.00,-0.012,0,0,405.392,1958.0433,4.83
340200.00,-0.001,0,0,405.157,1956.9083,4.83
340400.00,0.012,0,0,405.49,1958.5166,4.83
340600.00,0.008,0,0,408.255,1971.0552,4.828
340800.00,0,0,0,564.461,2659.7402,4.712
341000.00,0.011,0,0,405.49,1958.5166,4.83
341200.00,0.002,0,0,405.668,1960.1876,4.832
341400.00,0.005,0,0,405.7,1961.1539,4.834
341600.00,-0.012,0,0,406.021,1960.2694,4.828
341800.00,-0.001,0,0,405.293,1957.5652,4.83
342000.00,0.004,0,0,405.91,1962.1689,4.834
342200.00,0.012,0,0,405.412,1959.7616,4.834
342400.00,-0.002,0,0,405.227,1957.2463,4.83
342600.00,0.01,0,0,409.776,1978.3986,4.828
342800.00,0.015,0,0,565.544,2670.4988,4.722
343000.00,-0.016,0,0,408.196,1970.7704,4.828
343200.00,0.014,0,0,405.827,1960.1444,4.83
343400.00,0.012,0,0,406.037,1961.1586,4.83
343600.00,-0.015,0,0,405.592,1959.8206,4.832
343800.00,-0.024,0,0,405.407,1958.1158,4.83
344000.00,0.014,0,0,405.555,1959.6416,4.832
344200.00,0,0,0,446.502,2144.9956,4.804
344400.00,0.02,0,0,405.834,1960.1782,4.83
344600.00,0,0,0,411.862,1988.4697,4.828
344800.00,0.005,0,0,405.74,1960.5355,4.832
345000.00,0.005,0,0,405.938,1962.3043,4.834
345200.00,0.001,0,0,405.802,1960.0237,4.83
345400.00,0.002,0,0,405.136,1956.8068,4.83
345600.00,-0.014,0,0,406.481,1962.4902,4.828
345800.00,0.003,0,0,405.123,1956.744,4.83
346000.00,-0.012,0,0,405.358,1959.5006,4.834
346200.00,-0.001,0,0,405.785,1959.13,4.828
346400.00,0.004,0,0,405.736,1960.5162,4.832
346600.00,-0.015,0,0,564.555,2668.0869,4.726
346800.00,0.002,0,0,448.736,2153.9329,4.8
347000.00,0.007,0,0,446.095,2141.2561,4.8
347200.00,-0.012,0,0,406.209,1961.9895,4.83
347400.00,0.003,0,0,406.123,1962.3862,4.832
347600.00,0,0,0,405.844,1960.2264,4.83
347800.00,-0.023,0,0,405.634,1959.2122,4.83
348000.00,0,0,0,405.967,1960.0088,4.828
348200.00,0,0,0,405.964,1960.806,4.83
348400.00,-0.021,0,0,405.952,1961.5599,4.832
348600.00,-0.001,0,0,564.685,2664.1838,4.718
348800.00,-0.008,0,0,406.297,1962.4144,4.83
349000.00,0.021,0,0,405.779,1960.724,4.832
349200.00,-0.006,0,0,405.273,1958.2791,4.832
349400.00,0,0,0,405.335,1958.5786,4.832
349600.00,-0.012,0,0,407.766,1969.5098,4.83
349800.00,0,0,0,405.433,1958.2415,4.83
350000.00,-0.017,0,0,405.75,1958.9611,4.828
350200.00,0.025,0,0,565.3,2667.0852,4.718
350400.00,0.001,0,0,405.997,1960.9656,4.83
350600.00,0.011,0,0,408.576,1973.422,4.83
350800.00,-0.003,0,0,405.824,1960.1299,4.83
351000.00,-0.001,0,0,406.631,1965.6543,4.834
351200.00,-0.017,0,0,411.209,1984.4948,4.826
351400.00,0.009,0,0,409.049,1974.8887,4.828
351600.00,-0.004,0,0,409.272,1975.9652,4.828
351800.00,-0.004,0,0,406.322,1963.3478,4.832
352000.00,-0.002,0,0,406.072,1962.1398,4.832
352200.00,-0.009,0,0,564.91,2664.1155,4.716
352400.00,0,0,0,577.226,2719.8889,4.712
352600.00,0,0,0,410.999,1985.1251,4.83
352800.00,0.006,0,0,406.458,1963.1921,4.83
353000.00,0.009,0,0,405.771,1960.6853,4.832
353200.00,0,0,0,452.173,2168.6218,4.796
353400.00,0.003,0,0,405.463,1959.1971,4.832
353600.00,0.001,0,0,405.66,1958.5265,4.828
353800.00,-0.003,0,0,451.877,2167.2021,4.796
354000.00,0.008,0,0,406.006,1961.009,4.83
354200.00,-0.014,0,0,405.29,1958.3612,4.832
354400.00,-0.002,0,0,611.792,2863.1865,4.68
354600.00,-0.022,0,0,405.45,1958.3235,4.83
354800.00,-0.012,0,0,359.579,1748.9922,4.864
355000.00,0.009,0,0,313.078,1532.8298,4.896
355200.00,0.003,0,0,403.883,1952.3705,4.834
355400.00,-0.02,0,0,360.233,1750.0118,4.858
355600.00,-0.01,0,0,372.666,1807.4299,4.85
355800.00,-0.012,0,0,405.69,1959.4827,4.83
356000.00,0.012,0,0,406.25,1962.9999,4.832
356200.00,-0.006,0,0,406.225,1962.0668,4.83
356400.00,0.009,0,0,405.756,1959.8015,4.83
356600.00,0.018,0,0,406.398,1962.9023,4.83
356800.00,0.005,0,0,405.744,1959.7434,4.83
357000.00,-0.006,0,0,565.566,2668.3403,4.718
357200.00,-0.002,0,0,406.595,1964.667,4.832
357400.00,0.023,0,0,406.25,1962.9999,4.832
357600.00,-0.006,0,0,405.796,1959.9946,4.83
357800.00,-0.009,0,0,405.574,1958.1113,4.828
358000.00,0.004,0,0,406.208,1961.1722,4.828
358200.00,0.015,0,0,405.554,1958.0146,4.828
358400.00,-0.018,0,0,405.788,1959.1444,4.828
358600.00,0,0,0,406.594,1965.4755,4.834
358800.00,-0.024,0,0,405.717,1960.4246,4.832
359000.00,-0.025,0,0,565.423,2664.2729,4.712
359200.00,-0.03,0,0,405.853,1961.0815,4.832
359400.00,0.012,0,0,406.149,1961.6996,4.83
359600.00,0.018,0,0,406.112,1962.3331,4.832
359800.00,-0.019,0,0,405.841,1959.4004,4.828
360000.00,0.002,0,0,405.532,1960.3418,4.834
360200.00,0.005,0,0,405.976,1960.8641,4.83
360400.00,0.001,0,0,405.298,1957.5894,4.83
360600.00,0.018,0,0,406.458,1964.005,4.832
360800.00,0.013,0,0,408.897,1975.7903,4.832
361000.00,-0.015,0,0,359.266,1748.1884,4.866
361200.00,0,0,0,405.227,1957.2463,4.83
361400.00,0.015,0,0,452.162,2168.5688,4.796
361600.00,0.011,0,0,408.786,1973.6189,4.828
361800.00,0.003,0,0,405.528,1958.7003,4.83
362000.00,0.012,0,0,405.75,1961.3955,4.834
362200.00,-0.012,0,0,405.565,1958.8789,4.83
362400.00,0.012,0,0,566.091,2670.8174,4.718
362600.00,0,0,0,406.729,1965.3145,4.832
362800.00,0.001,0,0,405.322,1958.5157,4.832
363000.00,0.003,0,0,405.784,1959.9366,4.83
363200.00,-0.014,0,0,405.537,1958.7437,4.83
363400.00,0.012,0,0,447.159,2147.2576,4.802
363600.00,-0.034,0,0,405.791,1960.782,4.832
363800.00,-0.002,0,0,406.569,1963.7283,4.83
364000.00,-0.001,0,0,406.009,1961.8354,4.832
364200.00,0.013,0,0,405.565,1958.8789,4.83
364400.00,0.005,0,0,567.054,2704.8477,4.77
364600.00,0.008,0,0,564.462,2662.0027,4.716
364800.00,0,0,0,406.125,1962.3959,4.832
365000.00,0.016,0,0,405.355,1957.0541,4.828
365200.00,0.005,0,0,406.317,1963.3236,4.832
365400.00,0.003,0,0,405.774,1959.8883,4.83
365600.00,-0.01,0,0,405.639,1960.0476,4.832
365800.00,-0.004,0,0,405.75,1958.1495,4.826
366000.00,0.011,0,0,406.091,1962.2317,4.832
366200.00,-0.024,0,0,411.459,1986.5242,4.828
366400.00,-0.012,0,0,364.018,1768.3994,4.858
366600.00,0.002,0,0,364.561,1771.0372,4.858
366800.00,0.005,0,0,363.82,1768.1653,4.86
367000.00,0.01,0,0,358.988,1746.1176,4.864
367200.00,-0.007,0,0,364.418,1771.0715,4.86
367400.00,0.006,0,0,364.869,1773.993,4.862
367600.00,0.013,0,0,313.207,1534.0878,4.898
367800.00,0.004,0,0,407.115,1966.3654,4.83
368000.00,0.001,0,0,363.499,1766.6051,4.86
368200.00,0.015,0,0,363.722,1768.4163,4.862
368400.00,0.012,0,0,363.443,1765.606,4.858
368600.00,-0.008,0,0,313.282,1534.4552,4.898
368800.00,-0.006,0,0,364.078,1769.4192,4.86
369000.00,-0.016,0,0,405.887,1961.2458,4.832
369200.00,-0.012,0,0,363.805,1769.5475,4.864
369400.00,0,0,0,367.285,1783.536,4.856
369600.00,0.001,0,0,313.084,1532.8593,4.896
369800.00,0.002,0,0,363.62,1767.9204,4.862
370000.00,0.02,0,0,363.886,1769.9414,4.864
370200.00,0.007,0,0,361.788,1759.0132,4.862
370400.00,-0.021,0,0,371,1801.5759,4.856
370600.00,-0.011,0,0,313.208,1533.4664,4.896
370800.00,0,0,0,363.768,1767.1849,4.858
371000.00,0.001,0,0,363.546,1766.8336,4.86
371200.00,0.012,0,0,429.223,2065.4209,4.812
371400.00,-0.006,0,0,368.359,1790.2249,4.86
371600.00,0.014,0,0,408.491,1973.8284,4.832
371800.00,0.005,0,0,360.522,1752.858,4.862
372000.00,-0.019,0,0,361.294,1756.6115,4.862
372200.00,0.01,0,0,360.924,1756.2563,4.866
372400.00,0.008,0,0,440.363,2117.2654,4.808
372600.00,0.002,0,0,360.64,1754.153,4.864
372800.00,-0.012,0,0,366.404,1781.4562,4.862
373000.00,0.004,0,0,405.409,1958.1254,4.83
373200.00,0.012,0,0,405.384,1957.194,4.828
373400.00,0.008,0,0,405.791,1959.9705,4.83
373600.00,0.011,0,0,565.672,2666.5779,4.714
373800.00,-0.006,0,0,405.446,1959.1151,4.832
374000.00,0.011,0,0,405.409,1958.1254,4.83
374200.00,0.002,0,0,405.305,1958.4336,4.832
374400.00,0.004,0,0,446.143,2143.271,4.804
374600.00,0.004,0,0,405.997,1962.5896,4.834
374800.00,-0.013,0,0,405.409,1958.9362,4.832
375000.00,-0.009,0,0,405.458,1958.3622,4.83
375200.00,0.005,0,0,405.742,1960.5453,4.832
375400.00,0.002,0,0,406.347,1961.8433,4.828
375600.00,0.023,0,0,566.227,2671.459,4.718
375800.00,0,0,0,405.441,1957.4692,4.828
376000.00,0.023,0,0,405.614,1958.3044,4.828
376200.00,0.005,0,0,405.824,1960.1299,4.83
376400.00,-0.002,0,0,405.791,1959.9705,4.83
376600.00,0,0,0,448.739,2153.0498,4.798
376800.00,-0.013,0,0,406.013,1961.0427,4.83
377000.00,-0.007,0,0,405.927,1961.4392,4.832
377200.00,-0.017,0,0,407.1,1965.4789,4.828
377400.00,-0.004,0,0,405.717,1958.8018,4.828
377600.00,0,0,0,566.869,2674.488,4.718
377800.00,0.001,0,0,405.487,1959.3131,4.832
378000.00,-0.005,0,0,406.302,1964.064,4.834
378200.00,0,0,0,359.221,1747.251,4.864
378400.00,0,0,0,405.878,1962.0143,4.834
378600.00,-0.004,0,0,405.865,1960.3279,4.83
378800.00,-0.005,0,0,409.765,1978.3455,4.828
379000.00,0.012,0,0,566.314,2671.8696,4.718
379200.00,0,0,0,406.117,1963.1697,4.834
379400.00,-0.005,0,0,405.578,1958.9418,4.83
379600.00,0.005,0,0,405.258,1958.2065,4.832
379800.00,0.014,0,0,406.01,1960.2163,4.828
380000.00,0.004,0,0,405.418,1958.9797,4.832
380200.00,-0.007,0,0,405.566,1959.6948,4.832
380400.00,-0.002,0,0,405.583,1959.777,4.832
380600.00,0.018,0,0,405.447,1959.9308,4.834
380800.00,0.004,0,0,405.892,1960.4584,4.83
381000.00,0,0,0,407.669,1968.226,4.828
381200.00,0.002,0,0,565.985,2670.3171,4.718
381400.00,-0.018,0,0,404.887,1955.6041,4.83
381600.00,-0.009,0,0,405.332,1957.7535,4.83
381800.00,0.011,0,0,405.282,1957.5121,4.83
382000.00,0,0,0,405.784,1960.7482,4.832
382200.00,-0.002,0,0,406.129,1962.4153,4.832
382400.00,0.028,0,0,405.697,1960.3278,4.832
382600.00,-0.003,0,0,446.928,2147.042,4.804
382800.00,0.006,0,0,405.927,1962.2512,4.834
383000.00,-0.001,0,0,406.075,1961.3423,4.83
383200.00,-0.004,0,0,566.968,2674.9551,4.718
383400.00,0.019,0,0,406.31,1962.4773,4.83
383600.00,0.009,0,0,359.462,1748.4231,4.864
383800.00,0.014,0,0,363.868,1769.854,4.864
384000.00,0,0,0,363.584,1766.291,4.858
384200.00,0.003,0,0,425.945,2051.3511,4.816
384400.00,-0.004,0,0,360.605,1752.5404,4.86
384600.00,0,0,0,361.481,1756.7976,4.86
384800.00,-0.017,0,0,363.369,1765.2465,4.858
385000.00,0.005,0,0,366.491,1781.8793,4.862
385200.00,0.024,0,0,365.862,1778.0894,4.86
385400.00,0,0,0,430.465,2073.9802,4.818
385600.00,-0.011,0,0,363.487,1765.8198,4.858
385800.00,0.003,0,0,360.784,1754.1318,4.862
386000.00,0.009,0,0,360.666,1754.2793,4.864
386200.00,-0.001,0,0,361.394,1757.8204,4.864
386400.00,-0.006,0,0,430.009,2070.9233,4.816
386600.00,-0.003,0,0,363.561,1767.6335,4.862
386800.00,-0.003,0,0,313.028,1533.2112,4.898
387000.00,0.011,0,0,363.332,1766.5201,4.862
387200.00,-0.006,0,0,366.072,1778.3777,4.858
387400.00,0,0,0,440.442,2118.5259,4.81
387600.00,0.007,0,0,369.231,1793.7241,4.858
387800.00,0.007,0,0,313.109,1533.6079,4.898
388000.00,0,0,0,363.041,1765.8313,4.864
388200.00,-0.006,0,0,363.331,1765.7887,4.86
388400.00,-0.016,0,0,421.185,2030.9541,4.822
388600.00,-0.01,0,0,366.218,1779.0869,4.858
388800.00,-0.003,0,0,368.687,1790.3441,4.856
389000.00,-0.01,0,0,312.844,1531.6842,4.896
389200.00,-0.009,0,0,361.275,1757.2415,4.864
389400.00,0.012,0,0,421.054,2031.1644,4.824
389600.00,-0.009,0,0,365.989,1777.9746,4.858
389800.00,0.002,0,0,313.165,1532.6295,4.894
390000.00,-0.006,0,0,363.317,1766.4471,4.862
390200.00,-0.001,0,0,363.336,1767.2662,4.864
390400.00,0.009,0,0,366.372,1780.568,4.86
390600.00,0.01,0,0,368.297,1788.4502,4.856
390800.00,0,0,0,352.989,1717.6447,4.866
391000.00,0.002,0,0,362.738,1763.6322,4.862
391200.00,0.028,0,0,365.115,1775.1891,4.862
391400.00,0,0,0,312.862,1531.7723,4.896
391600.00,0.01,0,0,366.164,1778.8247,4.858
391800.00,0.016,0,0,313.213,1532.8645,4.894
392000.00,0.001,0,0,363.764,1767.8931,4.86
392200.00,-0.013,0,0,430.61,2073.8176,4.816
392400.00,0.018,0,0,363.3,1765.6379,4.86
392600.00,0.001,0,0,365.633,1776.9764,4.86
392800.00,-0.004,0,0,315.466,1543.2598,4.892
393000.00,-0.007,0,0,365.929,1777.683,4.858
393200.00,0,0,0,365.707,1779.5303,4.866
393400.00,0.002,0,0,312.813,1532.158,4.898
393600.00,0.001,0,0,366.09,1778.4651,4.858
393800.00,-0.002,0,0,312.967,1531.6605,4.894
394000.00,0.01,0,0,426.718,2052.5134,4.81
394200.00,0.007,0,0,363.418,1766.9384,4.862
394400.00,0.007,0,0,363.369,1765.9734,4.86
394600.00,-0.016,0,0,360.457,1751.821,4.86
394800.00,-0.001,0,0,312.787,1532.0306,4.898
395000.00,-0.005,0,0,430.675,2074.1306,4.816
395200.00,-0.028,0,0,363.549,1767.5753,4.862
395400.00,-0.006,0,0,363.61,1766.4172,4.858
395600.00,0,0,0,403.351,1948.1853,4.83
395800.00,-0.023,0,0,354.841,1727.366,4.868
396000.00,0,0,0,408.564,1974.1812,4.832
396200.00,0.013,0,0,354.699,1726.6748,4.868
396400.00,-0.016,0,0,408.074,1970.1813,4.828
396600.00,0.011,0,0,355.291,1729.5565,4.868
396800.00,0.005,0,0,406.606,1963.0938,4.828
397000.00,0.016,0,0,354.563,1724.5944,4.864
397200.00,-0.008,0,0,405.845,1961.8547,4.834
397400.00,0.013,0,0,405.339,1957.7872,4.83
397600.00,-0.004,0,0,361.183,1756.7941,4.864
397800.00,0,0,0,365.515,1774.9409,4.856
398000.00,0.001,0,0,370.649,1799.1302,4.854
398200.00,0.024,0,0,312.566,1529.6981,4.894
398400.00,0.004,0,0,363.819,1768.8879,4.862
398600.00,0.001,0,0,364.029,1769.9089,4.862
398800.00,0,0,0,407.761,1969.4855,4.83
399000.00,-0.004,0,0,353.039,1718.5939,4.868
399200.00,-0.012,0,0,363.017,1764.9886,4.862
399400.00,-0.01,0,0,366.867,1782.2399,4.858
399600.00,0.02,0,0,360.943,1755.6267,4.864
399800.00,-0.02,0,0,364.411,1773.224,4.866
400000.00,-0.002,0,0,312.701,1530.984,4.896
400200.00,-0.026,0,0,363.479,1767.2349,4.862
400400.00,-0.002,0,0,363.096,1763.9203,4.858
400600.00,0.013,0,0,361.671,1759.8911,4.866
400800.00,0,0,0,361.696,1758.566,4.862
401000.00,-0.005,0,0,312.603,1530.5043,4.896
401200.00,0.01,0,0,364.214,1770.8085,4.862
401400.00,-0.006,0,0,361.499,1756.8851,4.86
401600.00,0,0,0,360.82,1754.3069,4.862
401800.00,-0.013,0,0,483.023,2307.8838,4.778
402000.00,0,0,0,358.734,1744.1648,4.862
402200.00,-0.002,0,0,358.321,1742.1567,4.862
402400.00,-0.013,0,0,364.245,1770.9591,4.862
402600.00,0.001,0,0,363.085,1763.8668,4.858
402800.00,-0.012,0,0,427.619,2057.7024,4.812
403000.00,-0.012,0,0,363.357,1766.6417,4.862
403200.00,0.003,0,0,363.856,1769.7954,4.864
403400.00,0.009,0,0,371.495,1802.4938,4.852
403600.00,-0.015,0,0,313.411,1533.8335,4.894
403800.00,0.011,0,0,439.183,2110.7136,4.806
404000.00,-0.019,0,0,368.565,1790.4888,4.858
404200.00,-0.001,0,0,404.795,1955.9694,4.832
404400.00,-0.009,0,0,405.481,1958.4731,4.83
404600.00,0,0,0,405.518,1959.4629,4.832
404800.00,0.019,0,0,405.605,1959.0721,4.83
405000.00,-0.005,0,0,405.629,1959.188,4.83
405200.00,0,0,0,550.859,2627.5974,4.77
405400.00,0.018,0,0,569.459,2684.4297,4.714
405600.00,0.001,0,0,406.117,1962.3573,4.832
405800.00,-0.004,0,0,451.05,2165.04,4.8
406000.00,0.019,0,0,405.426,1959.0183,4.832
406200.00,-0.009,0,0,405.665,1959.3619,4.83
406400.00,-0.008,0,0,449.063,2155.5024,4.8
406600.00,0.002,0,0,405.001,1955.3448,4.828
406800.00,-0.012,0,0,405.545,1957.9713,4.828
407000.00,0.006,0,0,405.594,1958.2079,4.828
407200.00,0.018,0,0,405.443,1957.4788,4.828
407400.00,-0.002,0,0,564.638,2661.7036,4.714
407600.00,0.004,0,0,404.826,1956.9288,4.834
407800.00,-0.005,0,0,405.615,1958.3092,4.828
408000.00,0.008,0,0,405.665,1960.9847,4.834
408200.00,-0.005,0,0,405.418,1959.7906,4.834
408400.00,-0.001,0,0,405.665,1960.1732,4.832
408600.00,-0.012,0,0,405.936,1960.6709,4.83
408800.00,-0.009,0,0,405.159,1956.918,4.83
409000.00,-0.01,0,0,405.085,1957.3706,4.832
409200.00,0.007,0,0,408.252,1970.2244,4.826
409400.00,-0.01,0,0,359.517,1748.6907,4.864
409600.00,0.001,0,0,359.572,1748.9581,4.864
409800.00,-0.008,0,0,364.385,1772.3687,4.864
410000.00,-0.008,0,0,352.957,1718.9005,4.87
410200.00,0.011,0,0,431.132,2075.4695,4.814
410400.00,-0.015,0,0,363.294,1766.3354,4.862
410600.00,-0.004,0,0,363.276,1765.5214,4.86
410800.00,-0.024,0,0,361.017,1755.2646,4.862
411000.00,-0.015,0,0,313.306,1533.3196,4.894
411200.00,0.01,0,0,427.261,2056.8345,4.814
411400.00,0.002,0,0,363.332,1765.0668,4.858
411600.00,-0.004,0,0,363.716,1768.3872,4.862
411800.00,0,0,0,361.075,1755.5468,4.862
412000.00,0.007,0,0,358.73,1744.1453,4.862
412200.00,-0.01,0,0,459.428,2201.5789,4.792
412400.00,0.003,0,0,361.174,1756.0281,4.862
412600.00,0.009,0,0,362.921,1763.796,4.86
412800.00,-0.001,0,0,363.192,1765.8395,4.862
413000.00,0.007,0,0,363.205,1765.1763,4.86
413200.00,-0.002,0,0,426.434,2052.8533,4.814
413400.00,-0.012,0,0,363.661,1767.3926,4.86
413600.00,-0.012,0,0,361.255,1757.1443,4.864
413800.00,0.01,0,0,360.643,1754.1675,4.864
414000.00,-0.01,0,0,405.728,1961.2892,4.834
414200.00,0.018,0,0,365.617,1777.6299,4.862
414400.00,-0.008,0,0,405.074,1957.3175,4.832
414600.00,0,0,0,405.16,1956.9227,4.83
414800.00,0.021,0,0,405.605,1959.0721,4.83
415000.00,-0.012,0,0,406.086,1961.3954,4.83
415200.00,0.011,0,0,405.74,1960.5355,4.832
415400.00,-0.003,0,0,405.592,1959.8206,4.832
415600.00,0.022,0,0,406.123,1962.3862,4.832
415800.00,0.009,0,0,405.642,1960.062,4.832
416000.00,0.01,0,0,406.296,1961.597,4.828
416200.00,-0.007,0,0,565.593,2665.0742,4.712
416400.00,-0.006,0,0,404.914,1955.7346,4.83
416600.00,-0.005,0,0,406.013,1960.2308,4.828
416800.00,0,0,0,405.705,1960.3665,4.832
417000.00,-0.009,0,0,406.058,1961.2601,4.83
417200.00,0.003,0,0,405.972,1960.8446,4.83
417400.00,-0.009,0,0,405.355,1958.6753,4.832
417600.00,0.018,0,0,405.799,1960.8207,4.832
417800.00,0.002,0,0,405.947,1961.5358,4.832
418000.00,0,0,0,406.063,1960.4722,4.828
418200.00,-0.012,0,0,610.187,2858.116,4.684
418400.00,0.005,0,0,405.952,1962.3719,4.834
418600.00,-0.012,0,0,406.803,1964.8585,4.83
418800.00,-0.001,0,0,405.915,1960.5695,4.83
419000.00,0.012,0,0,406.055,1962.8699,4.834
419200.00,0.022,0,0,406.08,1962.1783,4.832
419400.00,0,0,0,358.814,1745.2712,4.864
419600.00,0.001,0,0,408.264,1971.9152,4.83
419800.00,0,0,0,364.849,1772.4364,4.858
420000.00,0.001,0,0,363.202,1765.8881,4.862
420200.00,-0.009,0,0,312.948,1531.5675,4.894
420400.00,-0.002,0,0,363.276,1764.7948,4.858
420600.00,-0.005,0,0,426.574,2053.5273,4.814
420800.00,-0.002,0,0,363.295,1765.6138,4.86
421000.00,0,0,0,408.724,1974.9542,4.832
421200.00,-0.001,0,0,313.46,1535.3269,4.898
421400.00,0,0,0,313.51,1536.1991,4.9
421600.00,0.017,0,0,429.77,2069.7722,4.816
421800.00,0.002,0,0,363.543,1766.819,4.86
422000.00,0.001,0,0,366.086,1778.4457,4.858
422200.00,-0.019,0,0,313.01,1533.1229,4.898
422400.00,-0.006,0,0,360.834,1753.6533,4.86
422600.00,0.002,0,0,312.923,1532.071,4.896
422800.00,0.013,0,0,363.302,1765.6478,4.86
423000.00,0.009,0,0,365.894,1776.7812,4.856
423200.00,-0.012,0,0,313.293,1533.8824,4.896
423400.00,0.011,0,0,426.627,2052.9292,4.812
423600.00,-0.006,0,0,363.722,1766.9613,4.858
423800.00,0.006,0,0,363.154,1765.6547,4.862
424000.00,-0.004,0,0,363.58,1767.7258,4.862
424200.00,0.011,0,0,313.447,1534.6365,4.896
424400.00,0.004,0,0,363.519,1767.4294,4.862
424600.00,0.012,0,0,313.009,1531.8661,4.894
424800.00,-0.005,0,0,363.797,1768.0535,4.86
425000.00,-0.007,0,0,368.35,1788.7076,4.856
425200.00,0.009,0,0,313.824,1535.8547,4.894
425400.00,0.018,0,0,428.413,2060.6665,4.81
425600.00,0.015,0,0,363.025,1763.5753,4.858
425800.00,0.009,0,0,366.036,1778.2029,4.858
426000.00,0.012,0,0,360.976,1755.7872,4.864
426200.00,0,0,0,359.532,1748.7637,4.864
426400.00,0.014,0,0,449.378,2156.1155,4.798
426600.00,-0.009,0,0,358.86,1744.7772,4.862
426800.00,0.011,0,0,363.286,1764.8434,4.858
427000.00,0.012,0,0,368.408,1789.726,4.858
427200.00,0.006,0,0,320.445,1566.9761,4.89
427400.00,0.017,0,0,361.921,1760.3837,4.864
427600.00,-0.01,0,0,312.91,1532.6332,4.898
427800.00,0.019,0,0,313.54,1534.4648,4.894
428000.00,0.007,0,0,363.106,1764.6952,4.86
428200.00,-0.013,0,0,411.759,1988.7959,4.83
428400.00,0.012,0,0,368.142,1788.4337,4.858
428600.00,-0.013,0,0,355.121,1729.4392,4.87
428800.00,0.007,0,0,365.167,1775.4419,4.862
429000.00,-0.005,0,0,363.988,1768.9818,4.86
429200.00,-0.004,0,0,458.12,2196.2273,4.794
429400.00,0.001,0,0,361.056,1756.1763,4.864
429600.00,-0.032,0,0,361.537,1757.7928,4.862
429800.00,0.005,0,0,363.277,1766.2528,4.862
430000.00,0.002,0,0,360.747,1755.395,4.866
430200.00,0.007,0,0,365.462,1775.4143,4.858
430400.00,-0.001,0,0,437.619,2104.072,4.808
430600.00,-0.004,0,0,368.151,1787.7412,4.856
430800.00,-0.015,0,0,404.944,1957.4994,4.834
431000.00,0,0,0,405.788,1959.9559,4.83
431200.00,-0.009,0,0,405.549,1958.8016,4.83
431400.00,0.009,0,0,405.467,1957.5947,4.828
431600.00,-0.005,0,0,405.801,1960.0188,4.83
431800.00,0.001,0,0,565.936,2670.0859,4.718
432000.00,-0.006,0,0,405.686,1960.2747,4.832
432200.00,0.012,0,0,408.031,1970.7897,4.83
432400.00,0.005,0,0,411.363,1986.0607,4.828
432600.00,0.004,0,0,410.396,1980.5712,4.826
432800.00,-0.003,0,0,405.978,1960.0618,4.828
433000.00,0.015,0,0,405.267,1956.6292,4.828
433200.00,-0.02,0,0,405.181,1957.8345,4.832
433400.00,0.001,0,0,405.568,1959.7045,4.832
433600.00,0.011,0,0,405.95,1960.7385,4.83
433800.00,0.014,0,0,565.408,2664.2026,4.712
434000.00,0,0,0,551.24,2609.5703,4.734
434200.00,-0.014,0,0,405.699,1959.5261,4.83
434400.00,-0.014,0,0,406.6,1963.8781,4.83
434600.00,0.023,0,0,405.958,1960.7771,4.83
434800.00,-0.001,0,0,405.218,1956.3925,4.828
435000.00,-0.022,0,0,405.703,1959.5455,4.83
435200.00,0.012,0,0,405.16,1956.1125,4.828
435400.00,0.021,0,0,405.506,1960.2161,4.834
435600.00,-0.005,0,0,405.777,1959.903,4.83
435800.00,-0.016,0,0,407.678,1969.0847,4.83
436000.00,0,0,0,358.922,1745.0787,4.862
436200.00,-0.009,0,0,410.751,1982.2844,4.826
436400.00,0.004,0,0,312.893,1533.1758,4.9
436600.00,0.012,0,0,363.909,1770.0533,4.864
436800.00,-0.002,0,0,430.227,2071.1128,4.814
437000.00,0.015,0,0,363.44,1766.3185,4.86
437200.00,0,0,0,363.675,1768.915,4.864
437400.00,0.021,0,0,352.977,1717.5861,4.866
437600.00,-0.005,0,0,366.576,1780.826,4.858
437800.00,-0.001,0,0,312.807,1530.8776,4.894
438000.00,-0.003,0,0,363.584,1767.0183,4.86
438200.00,-0.007,0,0,365.867,1778.1136,4.86
438400.00,0.019,0,0,312.788,1532.0355,4.898
438600.00,0.001,0,0,462.536,2208.147,4.774
438800.00,-0.017,0,0,363.695,1767.5577,4.86
439000.00,0,0,0,365.818,1777.1438,4.858
439200.00,0.003,0,0,312.911,1531.3865,4.894
439400.00,0.015,0,0,312.837,1532.2756,4.898
439600.00,0.008,0,0,427.109,2056.1028,4.814
439800.00,0,0,0,363.468,1767.1814,4.862
440000.00,0.017,0,0,363.678,1767.4752,4.86
440200.00,0.008,0,0,361.345,1757.582,4.864
440400.00,-0.002,0,0,312.861,1533.0189,4.9
440600.00,0.011,0,0,429.791,2069.8733,4.816
440800.00,-0.009,0,0,363.431,1767.7283,4.864
441000.00,-0.008,0,0,368.355,1788.7319,4.856
441200.00,-0.004,0,0,313.041,1533.9009,4.9
441400.00,-0.019,0,0,363.189,1764.3721,4.858
441600.00,0,0,0,313.158,1532.5952,4.894
441800.00,0.012,0,0,363.325,1765.7596,4.86
442000.00,-0.003,0,0,363.078,1765.2853,4.862
442200.00,-0.014,0,0,361.548,1759.2926,4.866
442400.00,-0.009,0,0,361.233,1754.8699,4.858
442600.00,-0.003,0,0,312.918,1532.0465,4.896
442800.00,-0.009,0,0,363.429,1767.7185,4.864
443000.00,-0.025,0,0,363.553,1766.8677,4.86
443200.00,0.007,0,0,360.529,1752.892,4.862
443400.00,-0.002,0,0,409.432,1976.7378,4.828
443600.00,0.004,0,0,405.335,1956.1467,4.826
443800.00,0,0,0,365.806,1777.0854,4.858
444000.00,0.01,0,0,363.214,1764.4935,4.858
444200.00,-0.007,0,0,363.683,1767.4995,4.86
444400.00,0.008,0,0,363.096,1765.3728,4.862
444600.00,0.007,0,0,429.886,2069.4712,4.814
444800.00,0.007,0,0,362.93,1763.1139,4.858
445000.00,0,0,0,370.804,1801.3657,4.858
445200.00,-0.02,0,0,313.096,1532.2919,4.894
445400.00,0.017,0,0,368.496,1790.8906,4.86
445600.00,0.008,0,0,490.292,2337.7124,4.768
445800.00,0.012,0,0,365.499,1775.594,4.858
446000.00,-0.008,0,0,405.19,1957.8781,4.832
446200.00,-0.009,0,0,405.609,1958.2803,4.828
446400.00,0,0,0,405.436,1959.0667,4.832
446600.00,0.011,0,0,405.535,1958.734,4.83
446800.00,-0.005,0,0,405.103,1958.2679,4.834
447000.00,0.005,0,0,407.72,1968.4722,4.828
447200.00,-0.02,0,0,565.706,2667.8696,4.716
447400.00,-0.005,0,0,405.284,1957.5217,4.83
447600.00,-0.006,0,0,405.723,1960.4534,4.832
447800.00,0.013,0,0,405.686,1960.2747,4.832
448000.00,0.015,0,0,405.514,1958.6326,4.83
448200.00,-0.017,0,0,405.859,1961.9225,4.834
448400.00,0.002,0,0,406.55,1964.4495,4.832
448600.00,0.017,0,0,405.736,1960.5162,4.832
448800.00,0.011,0,0,405.444,1957.4836,4.828
449000.00,0.002,0,0,405.666,1959.3667,4.83
449200.00,-0.009,0,0,566.556,2675.2776,4.722
449400.00,0.004,0,0,405.264,1959.0463,4.834
449600.00,0.008,0,0,406.708,1963.5863,4.828
449800.00,0,0,0,405.478,1958.4587,4.83
450000.00,0.025,0,0,406.108,1962.3137,4.832
450200.00,0.003,0,0,405.824,1960.1299,4.83
450400.00,0,0,0,405.392,1957.2325,4.828
450600.00,0.003,0,0,406.305,1963.2656,4.832
450800.00,-0.013,0,0,408.111,1970.3599,4.828
451000.00,0.018,0,0,413.517,1996.4601,4.828
451200.00,-0.004,0,0,358.987,1745.3948,4.862
451400.00,-0.002,0,0,367.65,1785.3083,4.856
451600.00,-0.007,0,0,313.152,1532.5659,4.894
451800.00,-0.005,0,0,363.738,1767.7667,4.86
452000.00,0.005,0,0,427.212,2055.7441,4.812
452200.00,0.015,0,0,363.645,1766.5873,4.858
452400.00,-0.01,0,0,366.113,1778.5769,4.858
452600.00,-0.001,0,0,358.98,1746.7968,4.866
452800.00,-0.003,0,0,359.146,1747.6045,4.866
453000.00,-0.012,0,0,441.161,2120.22,4.806
453200.00,0.007,0,0,366.141,1779.4453,4.86
453400.00,0.012,0,0,363.55,1766.853,4.86
453600.00,-0.004,0,0,365.882,1777.4546,4.858
453800.00,0,0,0,409.302,1976.1101,4.828
454000.00,0.011,0,0,362.73,1761.4169,4.856
454200.00,0.007,0,0,405.714,1960.4099,4.832
454400.00,0,0,0,404.912,1955.7249,4.83
454600.00,0.013,0,0,405.134,1957.6074,4.832
454800.00,-0.009,0,0,448.471,2153.5579,4.802
455000.00,0.02,0,0,449.767,2157.9819,4.798
455200.00,0.003,0,0,448.648,2154.4077,4.802
455400.00,-0.013,0,0,449.104,2154.801,4.798
455600.00,0.005,0,0,448.845,2156.2512,4.804
455800.00,0.008,0,0,449.709,2157.7039,4.798
456000.00,0.008,0,0,620.184,2899.9805,4.676
456200.00,0.005,0,0,452.103,2169.1902,4.798
456400.00,-0.001,0,0,449.228,2156.2944,4.8
456600.00,-0.017,0,0,490.68,2340.5435,4.77
456800.00,-0.006,0,0,405.208,1956.3442,4.828
457000.00,0.001,0,0,405.591,1959.0045,4.83
457200.00,0.002,0,0,405.956,1961.5792,4.832
457400.00,-0.005,0,0,406.425,1963.0327,4.83
457600.00,0.02,0,0,405.808,1960.0527,4.83
457800.00,0,0,0,405.981,1960.8882,4.83
458000.00,0.004,0,0,406.05,1960.4094,4.828
458200.00,-0.018,0,0,566.854,2672.1499,4.714
458400.00,0.008,0,0,449.052,2156.3477,4.802
458600.00,0,0,0,405.338,1957.7826,4.83
458800.00,-0.009,0,0,405.742,1958.9225,4.828
459000.00,-0.012,0,0,404.957,1955.9423,4.83
459200.00,0,0,0,359.14,1747.5753,4.866
459400.00,0.014,0,0,358.721,1744.819,4.864
459600.00,0.001,0,0,368.026,1787.8702,4.858
459800.00,0.008,0,0,312.831,1530.9949,4.894
460000.00,-0.011,0,0,363.708,1768.3484,4.862
460200.00,0.002,0,0,363.313,1765.7012,4.86
460400.00,-0.006,0,0,363.35,1765.1543,4.858
460600.00,-0.006,0,0,370.705,1800.1434,4.856
460800.00,-0.013,0,0,313.133,1533.7253,4.898
461000.00,-0.017,0,0,363.547,1766.8385,4.86
461200.00,0.005,0,0,363.387,1766.0608,4.86
461400.00,0.016,0,0,415.812,2005.8771,4.824
461600.00,0.012,0,0,371.372,1802.6398,4.854
461800.00,-0.005,0,0,313.294,1534.5139,4.898
462000.00,-0.01,0,0,363.609,1767.8669,4.862
462200.00,-0.01,0,0,365.854,1777.3187,4.858
462400.00,-0.017,0,0,436.492,2097.7808,4.806
462600.00,-0.001,0,0,362.941,1763.8933,4.86
462800.00,-0.02,0,0,358.567,1744.787,4.866
463000.00,-0.013,0,0,358.424,1742.6576,4.862
463200.00,-0.006,0,0,363.459,1766.4109,4.86
463400.00,0,0,0,426.731,2053.4294,4.812
463600.00,0.004,0,0,363.3,1765.6379,4.86
463800.00,-0.007,0,0,363.066,1765.2269,4.862
464000.00,0.008,0,0,363.646,1767.3196,4.86
464200.00,0.005,0,0,370.883,1799.5244,4.852
464400.00,0.009,0,0,362.832,1763.3635,4.86
464600.00,0.013,0,0,412.636,1992.2065,4.828
464800.00,-0.004,0,0,397.111,1921.2229,4.838
465000.00,-0.004,0,0,406.519,1962.6738,4.828
465200.00,0.012,0,0,403.513,1949.7748,4.832
465400.00,0.012,0,0,474.683,2273.7317,4.79
465600.00,0.012,0,0,406.907,1964.5471,4.828
465800.00,0.012,0,0,411.695,1987.6636,4.828
466000.00,0,0,0,449.989,2159.0471,4.798
466200.00,0.012,0,0,449.627,2158.2097,4.8
466400.00,-0.006,0,0,449.319,2154.9338,4.796
466600.00,0.005,0,0,405.69,1959.4827,4.83
466800.00,0.011,0,0,566.033,2670.5437,4.718
467000.00,0.004,0,0,405.389,1959.6505,4.834
467200.00,-0.014,0,0,405.379,1958.7913,4.832
467400.00,0.016,0,0,405.799,1960.0092,4.83
467600.00,0.008,0,0,410.95,1984.0667,4.828
467800.00,0.009,0,0,406.026,1961.1056,4.83
468000.00,-0.001,0,0,405.816,1960.0913,4.83
468200.00,0.011,0,0,405.125,1958.3743,4.834
468400.00,0.026,0,0,405.582,1958.1499,4.828
468600.00,-0.002,0,0,406.067,1962.1156,4.832
468800.00,0.002,0,0,565.439,2668.8721,4.72
469000.00,0.008,0,0,407.647,1968.9349,4.83
469200.00,0,0,0,405.747,1960.5695,4.832
469400.00,0.004,0,0,405.623,1958.3478,4.828
469600.00,0.003,0,0,405.623,1959.9702,4.832
469800.00,0.019,0,0,404.932,1957.4414,4.834
470000.00,-0.008,0,0,407.055,1966.8896,4.832
470200.00,-0.013,0,0,406.199,1961.9412,4.83
470400.00,-0.015,0,0,405.606,1959.0769,4.83
470600.00,0.019,0,0,405.878,1960.3906,4.83
470800.00,0.003,0,0,406.05,1962.0334,4.832
471000.00,0.006,0,0,412.912,1991.8873,4.824
471200.00,-0.022,0,0,359.45,1747.646,4.862
471400.00,0,0,0,358.851,1744.7336,4.862
471600.00,0.016,0,0,363.676,1768.1926,4.862
471800.00,0.019,0,0,366.342,1778.9568,4.856
472000.00,0.018,0,0,405.648,1958.4686,4.828
472200.00,-0.001,0,0,405.648,1959.2799,4.83
472400.00,0.009,0,0,404.994,1956.9309,4.832
472600.00,0.01,0,0,405.628,1959.9944,4.832
472800.00,0.001,0,0,406.06,1961.2698,4.83
473000.00,0.006,0,0,493.654,2353.7422,4.768
473200.00,0.009,0,0,405.636,1960.033,4.832
473400.00,-0.003,0,0,405.858,1961.1058,4.832
473600.00,0.021,0,0,405.236,1957.2898,4.83
473800.00,0.017,0,0,561.846,2648.5422,4.714
474000.00,-0.002,0,0,405.433,1957.4307,4.828
474200.00,-0.007,0,0,405.318,1956.8752,4.828
474400.00,0,0,0,405.959,1960.782,4.83
474600.00,0,0,0,405.683,1958.6376,4.828
474800.00,0.012,0,0,406.374,1963.599,4.832
475000.00,0.006,0,0,405.819,1961.7291,4.834
475200.00,-0.001,0,0,405.54,1958.7582,4.83
475400.00,0.005,0,0,405.318,1957.6859,4.83
475600.00,0,0,0,405.742,1960.5453,4.832
475800.00,-0.002,0,0,562.71,2655.9912,4.72
476000.00,0.018,0,0,409.312,1977.7955,4.832
476200.00,-0.029,0,0,406.029,1961.932,4.832
476400.00,-0.003,0,0,405.424,1958.198,4.83
476600.00,0.005,0,0,405.642,1958.4396,4.828
476800.00,0.006,0,0,407.192,1966.7373,4.83
477000.00,0.002,0,0,365.437,1776.0239,4.86
477200.00,-0.004,0,0,410.534,1980.4159,4.824
477400.00,-0.01,0,0,313.491,1534.225,4.894
477600.00,-0.002,0,0,407.456,1968.0125,4.83
477800.00,-0.007,0,0,405.975,1961.6711,4.832
478000.00,0.022,0,0,408.522,1972.3442,4.828
478200.00,-0.015,0,0,406.843,1964.2379,4.828
478400.00,-0.004,0,0,406.017,1960.2501,4.828
478600.00,0.002,0,0,405.528,1957.8893,4.828
478800.00,0,0,0,406.243,1962.1537,4.83
479000.00,0.012,0,0,567.819,2676.6987,4.714
479200.00,-0.013,0,0,406.594,1964.6621,4.832
479400.00,0.006,0,0,406.729,1963.6876,4.828
479600.00,-0.009,0,0,406.421,1963.0133,4.83
479800.00,0.025,0,0,405.939,1962.3092,4.834
480000.00,0,0,0,406.54,1964.4012,4.832
480200.00,0,0,0,406.182,1961.859,4.83
480400.00,0.003,0,0,405.626,1959.1736,4.83
480600.00,0.007,0,0,449.04,2154.4939,4.798
480800.00,0.014,0,0,405.967,1960.8207,4.83
481000.00,0,0,0,566.289,2671.7515,4.718
481200.00,-0.012,0,0,446.283,2143.051,4.802
481400.00,0.012,0,0,405.865,1961.9514,4.834
481600.00,0.013,0,0,405.821,1961.7388,4.834
481800.00,-0.016,0,0,405.611,1959.9122,4.832
482000.00,-0.011,0,0,407.013,1965.8728,4.83
482200.00,0,0,0,405.804,1960.0332,4.83
482400.00,0.003,0,0,406.556,1964.4785,4.832
482600.00,0.006,0,0,365.961,1779.3024,4.862
482800.00,-0.006,0,0,363.48,1766.5129,4.86
483000.00,-0.004,0,0,364.333,1770.6584,4.86
483200.00,-0.009,0,0,358.36,1738.7627,4.852
483400.00,-0.004,0,0,313.522,1535.6307,4.898
483600.00,0.012,0,0,365.765,1779.0809,4.864
483800.00,-0.009,0,0,313.793,1536.3304,4.896
484000.00,-0.002,0,0,403.679,1951.3843,4.834
484200.00,-0.006,0,0,313.158,1533.8478,4.898
484400.00,0.004,0,0,405.449,1959.9406,4.834
484600.00,0.003,0,0,405.898,1960.4873,4.83
484800.00,0.012,0,0,566.053,2670.6379,4.718
485000.00,0.002,0,0,405.278,1957.4928,4.83
485200.00,0.015,0,0,405.582,1959.7721,4.832
485400.00,0.015,0,0,405.705,1959.5551,4.83
485600.00,0.02,0,0,406.293,1962.3951,4.83
485800.00,-0.014,0,0,411.168,1985.1191,4.828
486000.00,0.003,0,0,411.53,1986.8668,4.828
486200.00,-0.004,0,0,410.276,1980.8125,4.828
486400.00,0.003,0,0,405.858,1959.4824,4.828
486600.00,-0.007,0,0,405.947,1960.7239,4.83
486800.00,0.001,0,0,567.41,2678.175,4.72
487000.00,-0.001,0,0,406.614,1965.5721,4.834
487200.00,0.009,0,0,405.848,1960.2457,4.83
487400.00,-0.002,0,0,405.75,1959.7725,4.83
487600.00,0.018,0,0,406.327,1962.5593,4.83
487800.00,0.006,0,0,405.339,1956.9767,4.828
488000.00,-0.005,0,0,405.455,1959.1584,4.832
488200.00,0.02,0,0,449.734,2159.6228,4.802
488400.00,0.015,0,0,405.245,1956.5228,4.828
488600.00,-0.003,0,0,406.344,1963.4541,4.832
488800.00,0,0,0,566.416,2670.0852,4.714
489000.00,0.003,0,0,405.339,1958.5979,4.832
489200.00,0,0,0,405.673,1960.2119,4.832
489400.00,0,0,0,359.191,1747.8235,4.866
489600.00,-0.017,0,0,361.943,1759.7668,4.862
489800.00,0.012,0,0,363.776,1767.9514,4.86
490000.00,-0.008,0,0,361.84,1759.2661,4.862
490200.00,0.002,0,0,313.75,1536.12,4.896
490400.00,0.007,0,0,363.702,1766.8643,4.858
490600.00,-0.004,0,0,371.317,1803.1152,4.856
490800.00,-0.009,0,0,364.887,1771.8912,4.856
491000.00,0.008,0,0,368.547,1791.1384,4.86
491200.00,-0.013,0,0,313.423,1533.8922,4.894
491400.00,-0.003,0,0,363.722,1768.4163,4.862
491600.00,0,0,0,363.499,1768.0591,4.864
491800.00,-0.005,0,0,438.463,2108.1301,4.808
492000.00,0.012,0,0,422.748,2037.6454,4.82
492200.00,-0.002,0,0,408.925,1975.1077,4.83
492400.00,0.009,0,0,313.219,1532.8938,4.894
492600.00,0.004,0,0,364.241,1770.9397,4.862
492800.00,0,0,0,365.772,1778.3834,4.862
493000.00,-0.001,0,0,368.235,1788.149,4.856
493200.00,-0.004,0,0,312.694,1530.9498,4.896
493400.00,0,0,0,363.335,1765.8081,4.86
493600.00,-0.016,0,0,364.47,1771.3242,4.86
493800.00,-0.011,0,0,417.691,2014.1061,4.822
494000.00,0.017,0,0,366.124,1779.3627,4.86
494200.00,-0.026,0,0,312.373,1529.3781,4.896
494400.00,0.008,0,0,363.218,1765.9658,4.862
494600.00,0,0,0,366.897,1783.8533,4.862
494800.00,-0.006,0,0,420.575,2028.0127,4.822
495000.00,0,0,0,365.483,1775.5164,4.858
495200.00,-0.003,0,0,313.57,1535.8658,4.898
495400.00,-0.001,0,0,313.169,1533.2754,4.896
495600.00,0.003,0,0,427.82,2059.5256,4.814
495800.00,0.001,0,0,405.875,1960.3762,4.83
496000.00,-0.004,0,0,365.921,1777.644,4.858
496200.00,-0.013,0,0,315.132,1542.256,4.894
496400.00,0,0,0,363.292,1765.5991,4.86
496600.00,0.005,0,0,364.483,1769.9294,4.856
496800.00,0.022,0,0,313.25,1533.0455,4.894
497000.00,0.01,0,0,363.335,1766.5347,4.862
497200.00,0.012,0,0,313.25,1533.0455,4.894
497400.00,-0.012,0,0,363.735,1768.4795,4.862
497600.00,-0.007,0,0,429.717,2066.9387,4.81
497800.00,0.004,0,0,363.587,1767.76,4.862
498000.00,0,0,0,366.024,1778.1444,4.858
498200.00,0,0,0,313.984,1537.8936,4.898
498400.00,-0.01,0,0,360.144,1751.0201,4.862
498600.00,0.025,0,0,313.176,1533.3097,4.896
498800.00,-0.008,0,0,363.445,1765.6157,4.858
499000.00,0.013,0,0,363.482,1765.7954,4.858
499200.00,0.019,0,0,312.892,1531.9192,4.896
499400.00,-0.004,0,0,430.173,2070.8528,4.814
499600.00,-0.022,0,0,363.406,1766.1532,4.86
499800.00,0.007,0,0,363.024,1765.0226,4.862
500000.00,-0.012,0,0,361.005,1755.2063,4.862
500200.00,-0.011,0,0,359.08,1745.8469,4.862
500400.00,-0.017,0,0,447.591,2148.437,4.8
500600.00,-0.014,0,0,358.685,1744.6438,4.864
500800.00,-0.016,0,0,363.313,1766.4277,4.862
501000.00,0.002,0,0,363.523,1766.7219,4.86
501200.00,0.012,0,0,363.535,1767.5072,4.862
501400.00,-0.021,0,0,363.047,1764.4084,4.86
501600.00,0,0,0,417.791,2013.7526,4.82
501800.00,0.017,0,0,370.711,1800.9139,4.858
502000.00,0.001,0,0,312.942,1532.7898,4.898
502200.00,-0.006,0,0,365.984,1778.6824,4.86
502400.00,0.006,0,0,367.877,1785.675,4.854
502600.00,-0.003,0,0,365.508,1777.0999,4.862
502800.00,-0.017,0,0,405.734,1959.6952,4.83
503000.00,-0.001,0,0,405.216,1958.0037,4.832
503200.00,0.007,0,0,405.611,1959.1011,4.83
503400.00,-0.024,0,0,448.78,2153.2463,4.798
503600.00,-0.012,0,0,405.433,1958.2415,4.83
503800.00,0.008,0,0,405.606,1959.8881,4.832
504000.00,0,0,0,406.125,1961.5837,4.83
504200.00,0,0,0,566.61,2672.1328,4.716
504400.00,0.01,0,0,405.561,1959.6707,4.832
504600.00,0.006,0,0,405.66,1959.3378,4.83
504800.00,-0.001,0,0,405.972,1960.0327,4.828
505000.00,0.027,0,0,405.404,1958.912,4.832
505200.00,0.014,0,0,406.12,1961.5596,4.83
505400.00,0,0,0,405.922,1960.6033,4.83
505600.00,-0.006,0,0,406.268,1963.8995,4.834
505800.00,0.002,0,0,406.129,1960.7908,4.828
506000.00,-0.002,0,0,405.895,1959.661,4.828
506200.00,-0.017,0,0,581.174,2736.1672,4.708
506400.00,-0.001,0,0,564.958,2665.4719,4.718
506600.00,0.002,0,0,406.561,1964.5027,4.832
506800.00,0.015,0,0,405.483,1959.2938,4.832
507000.00,-0.003,0,0,404.915,1955.7395,4.83
507200.00,0.005,0,0,405.841,1960.212,4.83
507400.00,0.007,0,0,405.642,1959.2509,4.83
507600.00,0.003,0,0,405.74,1960.5355,4.832
507800.00,-0.002,0,0,359.439,1748.3112,4.864
508000.00,-0.012,0,0,430.86,2074.1599,4.814
508200.00,0.018,0,0,365.869,1777.3915,4.858
508400.00,0.001,0,0,313.256,1534.3279,4.898
508600.00,-0.002,0,0,403.837,1952.1481,4.834
508800.00,-0.005,0,0,368.806,1791.6594,4.858
509000.00,0,0,0,447.941,2148.3252,4.796
509200.00,0.014,0,0,364.215,1769.3563,4.858
509400.00,-0.012,0,0,363.141,1765.5916,4.862
509600.00,0,0,0,364.067,1768.6373,4.858
509800.00,0.008,0,0,361.943,1759.7668,4.862
510000.00,0.001,0,0,361.597,1757.3615,4.86
510200.00,-0.019,0,0,366.176,1778.1506,4.856
510400.00,0,0,0,368.62,1791.4933,4.86
510600.00,0.004,0,0,369.014,1793.4081,4.86
510800.00,0.013,0,0,312.979,1532.9711,4.898
511000.00,0.01,0,0,405.364,1957.9082,4.83
511200.00,0.002,0,0,567.5,2678.5999,4.72
511400.00,-0.011,0,0,446.283,2143.051,4.802
511600.00,0.004,0,0,405.767,1961.4777,4.834
511800.00,-0.004,0,0,405.964,1960.806,4.83
512000.00,-0.014,0,0,405.693,1959.4971,4.83
512200.00,0.008,0,0,405.717,1960.4246,4.832
512400.00,0.012,0,0,406.121,1960.7522,4.828
512600.00,-0.008,0,0,406.196,1962.739,4.832
512800.00,-0.016,0,0,405.958,1959.9653,4.828
513000.00,0.004,0,0,405.415,1958.1544,4.83
513200.00,0.019,0,0,565.469,2669.0134,4.72
513400.00,0.011,0,0,406,1960.168,4.828
513600.00,0.005,0,0,405.457,1959.9791,4.834
513800.00,-0.018,0,0,406.436,1963.8987,4.832
514000.00,0.007,0,0,405.005,1956.1742,4.83
514200.00,0.003,0,0,405.375,1957.1505,4.828
514400.00,-0.012,0,0,448.317,2153.7148,4.804
514600.00,-0.019,0,0,448.601,2152.3877,4.798
514800.00,-0.006,0,0,449.194,2155.2327,4.798
515000.00,0.013,0,0,448.577,2153.1697,4.8
515200.00,0.004,0,0,449.44,2158.2109,4.802
515400.00,-0.004,0,0,613.338,2874.1018,4.686
515600.00,-0.006,0,0,448.897,2154.7058,4.8
515800.00,-0.004,0,0,449.498,2158.4893,4.802
516000.00,0.003,0,0,402.014,1942.5316,4.832
516200.00,0.01,0,0,401.36,1940.1742,4.834
516400.00,0.002,0,0,362.859,1764.2205,4.862
516600.00,0.005,0,0,406.012,1961.0378,4.83
516800.00,0.002,0,0,405.666,1960.178,4.832
517000.00,-0.015,0,0,405.938,1961.4923,4.832
517200.00,-0.008,0,0,405.728,1960.4775,4.832
517400.00,-0.019,0,0,453.385,2174.4346,4.796
517600.00,-0.02,0,0,406.012,1961.0378,4.83
517800.00,-0.013,0,0,405.514,1958.6326,4.83
518000.00,0.011,0,0,449.655,2159.2434,4.802
518200.00,0.002,0,0,405.423,1959.0039,4.832
518400.00,-0.027,0,0,566.948,2675.9944,4.72
518600.00,0.014,0,0,406.064,1962.9135,4.834
518800.00,0.004,0,0,405.973,1960.0376,4.828
519000.00,-0.016,0,0,406.277,1963.1304,4.832
519200.00,-0.017,0,0,406.134,1961.6272,4.83
519400.00,0.024,0,0,405.924,1960.6129,4.83
519600.00,0.001,0,0,446.414,2143.6802,4.802
519800.00,0.001,0,0,405.64,1960.0525,4.832
520000.00,-0.02,0,0,406.084,1961.3857,4.83
520200.00,0.018,0,0,406.191,1961.0902,4.828
520400.00,0.011,0,0,567.142,2676.9102,4.72
520600.00,0.02,0,0,408.116,1971.2002,4.83
520800.00,0,0,0,405.742,1960.5453,4.832
521000.00,0.002,0,0,405.717,1959.6132,4.83
521200.00,0,0,0,408.297,1972.891,4.832
521400.00,0.007,0,0,405.396,1957.252,4.828
521600.00,0.01,0,0,361.548,1758.5695,4.864
521800.00,-0.005,0,0,361.678,1757.7551,4.86
522000.00,-0.003,0,0,421.724,2033.5531,4.822
522200.00,-0.009,0,0,361.289,1757.3097,4.864
522400.00,0.002,0,0,361.222,1755.5389,4.86
522600.00,0.002,0,0,363.887,1768.4908,4.86
522800.00,-0.011,0,0,363.764,1767.1655,4.858
523000.00,0.012,0,0,417.079,2010.3209,4.82
523200.00,0.02,0,0,361.179,1755.33,4.86
523400.00,0.001,0,0,371.305,1802.3145,4.854
523600.00,0.019,0,0,315.299,1543.704,4.896
523800.00,0.008,0,0,364.226,1770.1384,4.86
524000.00,0,0,0,426.981,2054.6323,4.812
524200.00,0.002,0,0,369.515,1794.3649,4.856
524400.00,0,0,0,406.305,1961.6405,4.828
524600.00,-0.005,0,0,405.453,1958.338,4.83
524800.00,-0.004,0,0,405.676,1958.6038,4.828
525000.00,-0.015,0,0,406.527,1964.3384,4.832
525200.00,-0.024,0,0,405.885,1959.6129,4.828
525400.00,-0.01,0,0,567.04,2675.2947,4.718
525600.00,0.004,0,0,449.377,2157.0098,4.8
525800.00,0.012,0,0,405.939,1961.4972,4.832
526000.00,0,0,0,405.507,1958.5988,4.83
526200.00,0,0,0,405.902,1961.3184,4.832
526400.00,-0.006,0,0,406.828,1964.9792,4.83
526600.00,0,0,0,406.067,1962.1156,4.832
526800.00,0.018,0,0,406.043,1961.9996,4.832
527000.00,0,0,0,406.598,1963.8683,4.83
527200.00,-0.003,0,0,406.512,1962.6399,4.828
527400.00,0,0,0,407.758,1970.2865,4.832
527600.00,-0.002,0,0,566.241,2670.3928,4.716
527800.00,-0.002,0,0,446.941,2146.2107,4.802
528000.00,0.012,0,0,406.03,1961.1249,4.83
528200.00,0,0,0,406.183,1961.8639,4.83
528400.00,0.013,0,0,406.479,1963.2936,4.83
528600.00,-0.008,0,0,406.114,1961.5306,4.83
528800.00,0.004,0,0,405.225,1956.4264,4.828
529000.00,0.008,0,0,406.435,1963.8938,4.832
529200.00,0.024,0,0,406.644,1964.0906,4.83
529400.00,0.005,0,0,410.334,1981.0927,4.828
529600.00,-0.008,0,0,363.484,1766.5323,4.86
529800.00,0.01,0,0,363.583,1767.0134,4.86
530000.00,-0.019,0,0,368.433,1789.8475,4.858
530200.00,-0.007,0,0,407.298,1967.2494,4.83
530400.00,-0.005,0,0,566.033,2669.4119,4.716
530600.00,0.006,0,0,421.206,2008.3102,4.768
530800.00,0.005,0,0,406.05,1962.0334,4.832
531000.00,0.014,0,0,405.606,1959.0769,4.83
531200.00,0.004,0,0,406.68,1964.2643,4.83
531400.00,0.009,0,0,406.013,1961.8547,4.832
531600.00,-0.004,0,0,405.668,1959.3765,4.83
531800.00,0.002,0,0,406.174,1962.6327,4.832
532000.00,-0.007,0,0,406.013,1961.0427,4.83
532200.00,0.001,0,0,405.623,1959.1589,4.83
532400.00,0.015,0,0,406.154,1961.7238,4.83
532600.00,0.007,0,0,612.507,2880.0081,4.702
532800.00,0.015,0,0,405.693,1961.12,4.834
533000.00,0.023,0,0,406.112,1962.3331,4.832
533200.00,-0.02,0,0,405.68,1959.4343,4.83
533400.00,-0.012,0,0,405.989,1960.115,4.828
533600.00,-0.021,0,0,406.28,1963.1449,4.832
533800.00,0.01,0,0,406.132,1961.6174,4.83
534000.00,-0.003,0,0,405.811,1960.8787,4.832
534200.00,0.014,0,0,406.088,1962.2172,4.832
534400.00,-0.005,0,0,406.075,1961.3423,4.83
534600.00,0.009,0,0,562.068,2647.3403,4.71
534800.00,0.012,0,0,405.865,1961.1395,4.832
535000.00,0.006,0,0,405.964,1960.806,4.83
535200.00,0.017,0,0,362.38,1761.8916,4.862
535400.00,0.002,0,0,313.214,1534.1221,4.898
535600.00,-0.001,0,0,363.8,1768.7955,4.862
535800.00,-0.005,0,0,362.719,1764.2651,4.864
536000.00,-0.002,0,0,411.625,1985.679,4.824
536200.00,0.006,0,0,371.167,1802.3868,4.856
536400.00,0.009,0,0,313.559,1535.1848,4.896
536600.00,-0.014,0,0,428.392,2060.5654,4.81
536800.00,0.003,0,0,363.997,1769.7534,4.862
537000.00,0,0,0,405.882,1960.41,4.83
537200.00,0.005,0,0,406.285,1961.5441,4.828
537400.00,-0.009,0,0,405.705,1960.3665,4.832
537600.00,0.004,0,0,405.73,1959.6759,4.83
537800.00,0.009,0,0,449.924,2159.6353,4.8
538000.00,0,0,0,406.05,1962.0334,4.832
538200.00,0.009,0,0,405.762,1959.8304,4.83
538400.00,0.003,0,0,567.25,2675.1511,4.716
538600.00,-0.012,0,0,405.791,1960.782,4.832
538800.00,0.012,0,0,447.221,2146.6609,4.8
539000.00,-0.008,0,0,406.137,1962.4539,4.832
539200.00,0.004,0,0,405.683,1958.6376,4.828
539400.00,0.006,0,0,406.646,1964.1001,4.83
539600.00,-0.021,0,0,459.32,2202.8987,4.796
539800.00,0.003,0,0,406.276,1961.5006,4.828
540000.00,-0.022,0,0,405.992,1961.7533,4.832
540200.00,0.011,0,0,450.052,2159.3494,4.798
540400.00,-0.019,0,0,567.026,2676.3625,4.72
540600.00,0.018,0,0,405.313,1957.6617,4.83
540800.00,0,0,0,405.876,1960.3811,4.83
541000.00,-0.023,0,0,406.313,1963.3043,4.832
541200.00,-0.021,0,0,406.276,1963.1255,4.832
541400.00,-0.008,0,0,405.535,1957.923,4.828
541600.00,0.005,0,0,405.972,1961.6565,4.832
541800.00,-0.024,0,0,450.636,2162.1514,4.798
542000.00,-0.014,0,0,411.698,1986.0311,4.824
542200.00,0.021,0,0,532.274,2520.8496,4.736
542400.00,-0.005,0,0,405.737,1960.5211,4.832
542600.00,-0.019,0,0,405.322,1957.7052,4.83
542800.00,0.003,0,0,405.643,1959.2557,4.83
543000.00,-0.012,0,0,408.514,1973.1227,4.83
543200.00,0.009,0,0,405.466,1958.4008,4.83
543400.00,0.011,0,0,406.33,1961.7612,4.828
543600.00,0.011,0,0,406.12,1960.7473,4.828
543800.00,0.002,0,0,405.824,1961.7533,4.834
544000.00,0.003,0,0,406.519,1962.6738,4.828
544200.00,-0.011,0,0,567.264,2675.217,4.716
544400.00,0.005,0,0,406.108,1960.6895,4.828
544600.00,-0.01,0,0,406.396,1962.8926,4.83
544800.00,-0.022,0,0,405.981,1960.8882,4.83
545000.00,0.006,0,0,405.475,1957.6333,4.828
545200.00,0.016,0,0,314.855,1540.2708,4.892
545400.00,0.012,0,0,315.707,1544.4387,4.892
545600.00,0.003,0,0,367.125,1784.2275,4.86
545800.00,0,0,0,315.306,1543.1075,4.894
546000.00,0,0,0,408.338,1971.4559,4.828
546200.00,0.007,0,0,314.88,1541.6525,4.896
546400.00,-0.001,0,0,367.897,1787.9795,4.86
546600.00,0.008,0,0,315.053,1541.8694,4.894
546800.00,0,0,0,314.917,1540.574,4.892
547000.00,-0.013,0,0,355.18,1727.5955,4.864
547200.00,0,0,0,412.061,1988.6064,4.826
547400.00,-0.012,0,0,315.355,1543.9781,4.896
547600.00,0.005,0,0,314.306,1538.2136,4.894
547800.00,-0.003,0,0,313.997,1537.3293,4.896
548000.00,0.012,0,0,366.342,1781.8875,4.864
548200.00,-0.008,0,0,405.561,1958.8596,4.83
548400.00,-0.009,0,0,406.265,1961.4475,4.828
548600.00,-0.028,0,0,405.512,1957.8119,4.828
548800.00,-0.001,0,0,405.734,1960.5066,4.832
549000.00,0.004,0,0,405.697,1958.7051,4.828
549200.00,-0.006,0,0,405.598,1958.2272,4.828
549400.00,-0.013,0,0,405.845,1960.2313,4.83
549600.00,-0.002,0,0,406.364,1963.5508,4.832
549800.00,0.006,0,0,411.078,1983.0403,4.824
550000.00,-0.011,0,0,357.419,1739.2009,4.866
550200.00,0.008,0,0,357.555,1739.8627,4.866
550400.00,0.002,0,0,357.728,1739.2736,4.862
550600.00,-0.01,0,0,422.271,2034.5016,4.818
550800.00,0.009,0,0,356.95,1735.491,4.862
551000.00,-0.005,0,0,357.098,1736.9246,4.864
551200.00,-0.012,0,0,356.654,1734.765,4.864
551400.00,0.003,0,0,404.944,1955.0697,4.828
551600.00,0.004,0,0,358.401,1743.2625,4.864
551800.00,0.006,0,0,357.389,1739.0549,4.866
552000.00,0.012,0,0,356.883,1736.5928,4.866
552200.00,0,0,0,417.664,2013.1405,4.82
552400.00,-0.008,0,0,359.445,1749.0594,4.866
552600.00,-0.01,0,0,356.976,1737.7593,4.868
552800.00,0,0,0,404.219,1953.186,4.832
553000.00,0.012,0,0,471.748,2254.9556,4.78
553200.00,0.004,0,0,361.394,1756.375,4.86
553400.00,0.001,0,0,359.161,1746.9591,4.864
553600.00,-0.003,0,0,369.737,1793.964,4.852
553800.00,-0.002,0,0,313.275,1533.1678,4.894
554000.00,0,0,0,437.171,2102.7925,4.81
554200.00,0,0,0,359.272,1748.2177,4.866
554400.00,0.004,0,0,369.115,1792.4224,4.856
554600.00,0.003,0,0,368.695,1789.6456,4.854
554800.00,0,0,0,400.599,1937.2968,4.836
555000.00,0.012,0,0,426.862,2054.9138,4.814
555200.00,0.005,0,0,398.945,1930.0958,4.838
555400.00,-0.002,0,0,371.171,1801.6641,4.854
555600.00,-0.012,0,0,374.12,1816.7267,4.856
555800.00,0.01,0,0,370.8,1799.8632,4.854
556000.00,-0.002,0,0,419.909,2024.8011,4.822
556200.00,0.003,0,0,312.904,1531.3522,4.894
556400.00,-0.025,0,0,405.572,1959.7238,4.832
556600.00,-0.002,0,0,405.116,1956.7102,4.83
556800.00,-0.002,0,0,405.165,1956.9469,4.83
557000.00,-0.016,0,0,406.034,1961.1442,4.83
557200.00,-0.013,0,0,416.474,1997.4093,4.796
557400.00,0.006,0,0,405.495,1959.3517,4.832
557600.00,-0.002,0,0,567.116,2675.6533,4.718
557800.00,0.02,0,0,405.713,1959.5939,4.83
558000.00,-0.002,0,0,405.285,1958.337,4.832
558200.00,-0.009,0,0,409.086,1975.0673,4.828
558400.00,0.011,0,0,406.327,1963.3719,4.832
558600.00,-0.003,0,0,405.487,1959.3131,4.832
558800.00,0,0,0,405.179,1956.2042,4.828
559000.00,0.005,0,0,405.853,1959.4583,4.828
559200.00,-0.014,0,0,405.532,1960.3418,4.834
559400.00,0.008,0,0,405.619,1959.1396,4.83
559600.00,0,0,0,566.622,2673.3225,4.718
559800.00,0.007,0,0,405.68,1960.2456,4.832
560000.00,-0.014,0,0,405.927,1962.2512,4.834
560200.00,-0.022,0,0,406.927,1964.6436,4.828
560400.00,-0.004,0,0,405.458,1959.173,4.832
560600.00,-0.025,0,0,406.038,1961.1635,4.83
560800.00,-0.008,0,0,404.989,1956.9069,4.832
561000.00,-0.008,0,0,405.989,1960.9269,4.83
561200.00,-0.011,0,0,405.902,1959.6949,4.828
561400.00,-0.008,0,0,361.178,1755.3252,4.86
561600.00,0,0,0,370.631,1799.043,4.854
561800.00,0.018,0,0,313.282,1533.2021,4.894
562000.00,-0.011,0,0,363.974,1768.9137,4.86
562200.00,0,0,0,364.004,1769.7875,4.862
562400.00,0,0,0,404.841,1956.1917,4.832
562600.00,0.02,0,0,370.656,1798.423,4.852
562800.00,0.021,0,0,312.874,1531.2053,4.894
563000.00,-0.014,0,0,366.047,1778.9884,4.86
563200.00,0.005,0,0,366.183,1779.6495,4.86
563400.00,0.002,0,0,447.225,2147.5745,4.802
563600.00,0.022,0,0,405.474,1958.4393,4.83
563800.00,-0.011,0,0,405.819,1960.1057,4.83
564000.00,0.004,0,0,405.713,1959.5939,4.83
564200.00,0.019,0,0,405.787,1959.9512,4.83
564400.00,0.007,0,0,405.972,1960.0327,4.828
564600.00,0.006,0,0,405.33,1956.9332,4.828
564800.00,0.01,0,0,405.771,1960.6853,4.832
565000.00,0.011,0,0,406.783,1964.7618,4.83
565200.00,0.017,0,0,567.377,2676.8848,4.718
565400.00,0,0,0,406.129,1963.2277,4.834
565600.00,-0.004,0,0,406.216,1961.2109,4.828
565800.00,0.002,0,0,406.112,1961.5209,4.83
566000.00,-0.015,0,0,405.816,1959.2797,4.828
566200.00,-0.005,0,0,446.456,2143.8816,4.802
566400.00,0.012,0,0,406.371,1963.5846,4.832
566600.00,-0.012,0,0,405.91,1961.3571,4.832
566800.00,0.037,0,0,405.318,1956.8752,4.828
567000.00,-0.002,0,0,405.959,1960.782,4.83
567200.00,0.001,0,0,566.127,2668.7229,4.714
567400.00,0.02,0,0,405.441,1958.28,4.83
567600.00,0,0,0,406.737,1964.5397,4.83
567800.00,-0.003,0,0,406.482,1964.934,4.834
568000.00,-0.014,0,0,406.532,1963.5496,4.83
568200.00,-0.01,0,0,411.727,1987.818,4.828
568400.00,0.012,0,0,359.58,1748.9969,4.864
568600.00,-0.012,0,0,368.799,1791.6255,4.858
568800.00,-0.009,0,0,450.244,2162.9722,4.804
569000.00,0,0,0,366.398,1779.2288,4.856
569200.00,0.017,0,0,313.109,1532.3555,4.894
569400.00,0.021,0,0,363.826,1768.922,4.862
569600.00,-0.002,0,0,361.16,1755.96,4.862
569800.00,0.005,0,0,421.259,2031.3109,4.822
570000.00,0.015,0,0,406.88,1965.2303,4.83
570200.00,0.001,0,0,363.931,1769.4325,4.862
570400.00,0.004,0,0,363.84,1768.2625,4.86
570600.00,-0.011,0,0,360.964,1754.285,4.86
570800.00,0,0,0,405.563,1959.6803,4.832
571000.00,0.003,0,0,566.11,2668.6426,4.714
571200.00,0,0,0,405.872,1960.3618,4.83
571400.00,-0.013,0,0,406.53,1963.5399,4.83
571600.00,0,0,0,405.679,1960.2407,4.832
571800.00,-0.015,0,0,407.374,1968.431,4.832
572000.00,0.02,0,0,406.3,1962.429,4.83
572200.00,0.005,0,0,406.449,1963.9615,4.832
572400.00,0.007,0,0,405.927,1959.8156,4.828
572600.00,0.005,0,0,405.507,1957.7877,4.828
