Time (ms),Main Avg Current (mA),Main Avg Power (mW),Main Avg Voltage (V),USB Avg Current (mA),USB Avg Power (mW),USB Avg Voltage (V)
0.00,0.012,0,0,360.78,1754.1123,4.862
200.00,-0.008,0,0,365.803,1778.5342,4.862
400.00,0.012,0,0,362.28,1761.4054,4.862
600.00,0.005,0,0,362.65,1763.2042,4.862
800.00,0.005,0,0,360.879,1754.5936,4.862
1000.00,-0.012,0,0,364.563,1772.5052,4.862
1200.00,0.008,0,0,403.337,1948.9243,4.832
1400.00,-0.005,0,0,405.065,1957.274,4.832
1600.00,-0.004,0,0,403.436,1950.2097,4.834
1800.00,-0.022,0,0,404.563,1955.6575,4.834
2000.00,-0.002,0,0,456.837,2191.9038,4.798
2200.00,0.022,0,0,404.255,1953.3601,4.832
2400.00,-0.003,0,0,404.502,1955.3628,4.834
2600.00,0.011,0,0,563.702,2661.801,4.722
2800.00,0.006,0,0,403.875,1952.3318,4.834
3000.00,0.009,0,0,403.9,1951.6447,4.832
3200.00,0.013,0,0,403.974,1952.8103,4.834
3400.00,0,0,0,406.978,1966.5176,4.832
3600.00,0,0,0,404.263,1955.8243,4.838
3800.00,0.001,0,0,404.468,1954.3893,4.832
4000.00,0,0,0,403.641,1949.5859,4.83
4200.00,0.004,0,0,404.406,1954.0897,4.832
4400.00,-0.003,0,0,403.74,1950.8716,4.832
4600.00,0.001,0,0,611.274,2868.0974,4.692
4800.00,-0.014,0,0,592.825,2786.2773,4.7
5000.00,0.009,0,0,447.13,2147.1184,4.802
5200.00,0.005,0,0,446.723,2145.1638,4.802
5400.00,0.008,0,0,446.611,2144.626,4.802
5600.00,-0.005,0,0,447.537,2149.0728,4.802
5800.00,0.009,0,0,446.714,2146.0139,4.804
6000.00,0.016,0,0,446.825,2145.6538,4.802
6200.00,0.002,0,0,400.178,1935.2609,4.836
6400.00,-0.019,0,0,473.141,2265.3992,4.788
6600.00,0,0,0,362.38,1761.8916,4.862
6800.00,0.002,0,0,362.028,1760.1802,4.862
7000.00,0,0,0,367.112,1783.4301,4.858
7200.00,0.009,0,0,370.076,1797.089,4.856
7400.00,0.003,0,0,410.321,1982.671,4.832
7600.00,0.016,0,0,357.414,1739.1766,4.866
7800.00,0.012,0,0,362.745,1764.3916,4.864
8000.00,0.019,0,0,351.132,1710.0127,4.87
8200.00,-0.009,0,0,362.659,1762.5228,4.86
8400.00,0.015,0,0,430.906,2075.2434,4.816
8600.00,0.012,0,0,362.276,1762.1104,4.864
8800.00,0.01,0,0,360.129,1750.9471,4.862
9000.00,0.007,0,0,367.669,1786.8715,4.86
9200.00,0,0,0,311.578,1526.109,4.898
9400.00,-0.004,0,0,427.882,2060.6797,4.816
9600.00,0.012,0,0,402.323,1944.8295,4.834
9800.00,0.008,0,0,361.894,1760.2524,4.864
10000.00,0.009,0,0,364.991,1773.8563,4.86
10200.00,-0.001,0,0,313.849,1537.2323,4.898
10400.00,0.007,0,0,425.439,2049.7649,4.818
10600.00,0.002,0,0,362.079,1761.1522,4.864
10800.00,-0.013,0,0,362.364,1763.2633,4.866
11000.00,0.024,0,0,366.832,1782.8036,4.86
11200.00,0.002,0,0,366.973,1782.7548,4.858
11400.00,-0.009,0,0,418.523,2018.955,4.824
11600.00,0.012,0,0,359.037,1746.3558,4.864
11800.00,-0.009,0,0,359.519,1749.4196,4.866
12000.00,-0.013,0,0,360.321,1752.6013,4.864
12200.00,0,0,0,360.153,1751.064,4.862
12400.00,0.011,0,0,418.947,2022.6761,4.828
12600.00,0,0,0,359.647,1750.0424,4.866
12800.00,0.017,0,0,359.944,1750.7676,4.864
13000.00,-0.003,0,0,362.326,1763.0784,4.866
13200.00,0.013,0,0,374.402,1818.0962,4.856
13400.00,0.009,0,0,367.244,1784.0712,4.858
13600.00,0.001,0,0,361.654,1759.085,4.864
13800.00,0.003,0,0,404.059,1954.0293,4.836
14000.00,0,0,0,403.454,1949.4897,4.832
14200.00,0,0,0,403.953,1951.9009,4.832
14400.00,-0.016,0,0,404.138,1952.7947,4.832
14600.00,0.013,0,0,403.2,1949.8752,4.836
14800.00,0.008,0,0,404.836,1956.9773,4.834
15000.00,-0.006,0,0,404.059,1954.0293,4.836
15200.00,0.019,0,0,404.454,1954.3217,4.832
15400.00,0.012,0,0,564.535,2664.605,4.72
15600.00,0.017,0,0,404.059,1951.6049,4.83
15800.00,-0.012,0,0,405.685,1959.4585,4.83
16000.00,0.012,0,0,403.974,1952.8103,4.834
16200.00,0.001,0,0,444.871,2138.05,4.806
16400.00,0.02,0,0,403.641,1952.0078,4.836
16600.00,0.008,0,0,404.048,1951.5519,4.83
16800.00,-0.008,0,0,403.937,1951.8236,4.832
17000.00,0.01,0,0,404.011,1952.181,4.832
17200.00,0,0,0,404.135,1953.5886,4.834
17400.00,0.018,0,0,563.318,2661.1143,4.724
17600.00,0.002,0,0,402.987,1947.233,4.832
17800.00,0.038,0,0,403.826,1951.2871,4.832
18000.00,0.003,0,0,403.229,1949.2091,4.834
18200.00,0,0,0,404.327,1955.3253,4.836
18400.00,-0.01,0,0,404.105,1953.4437,4.834
18600.00,0.02,0,0,404.352,1955.4462,4.836
18800.00,0.013,0,0,357.739,1741.4735,4.868
19000.00,0,0,0,405.892,1960.4584,4.83
19200.00,0,0,0,366.73,1781.5743,4.858
19400.00,0.012,0,0,312.282,1528.9327,4.896
19600.00,0.002,0,0,363.028,1765.0422,4.862
19800.00,-0.012,0,0,362.299,1761.4978,4.862
20000.00,0.005,0,0,417.746,2013.5358,4.82
20200.00,0.002,0,0,364.373,1771.5814,4.862
20400.00,0.004,0,0,357.369,1738.2427,4.864
20600.00,0.002,0,0,357.4,1739.8232,4.868
20800.00,-0.006,0,0,362.398,1761.9791,4.862
21000.00,-0.002,0,0,360.566,1754.5143,4.866
21200.00,-0.008,0,0,367.244,1784.8058,4.86
21400.00,0.012,0,0,311.609,1526.8842,4.9
21600.00,0.006,0,0,362.14,1762.1733,4.866
21800.00,0.004,0,0,417.651,2014.7484,4.824
22000.00,0,0,0,362.893,1764.3857,4.862
22200.00,0.018,0,0,357.729,1741.4248,4.868
22400.00,0.005,0,0,359.395,1748.0972,4.864
22600.00,0.013,0,0,359.198,1747.139,4.864
22800.00,0.01,0,0,422.151,2039.8335,4.832
23000.00,0.007,0,0,432.876,2082.1335,4.81
23200.00,0.009,0,0,314.411,1538.7275,4.894
23400.00,0.018,0,0,364.307,1770.5321,4.86
23600.00,0,0,0,365.314,1775.426,4.86
23800.00,0.002,0,0,360.932,1755.5732,4.864
24000.00,-0.007,0,0,363.648,1768.7838,4.864
24200.00,0.011,0,0,407.576,1969.4071,4.832
24400.00,-0.007,0,0,402.603,1946.183,4.834
24600.00,0.01,0,0,311.165,1524.0862,4.898
24800.00,-0.025,0,0,404.713,1954.7638,4.83
25000.00,0.006,0,0,561.425,2651.0488,4.722
25200.00,0.007,0,0,554.258,2618.3147,4.724
25400.00,0.002,0,0,403.352,1948.9967,4.832
25600.00,-0.023,0,0,403.464,1949.538,4.832
25800.00,0.008,0,0,407.228,1969.3546,4.836
26000.00,-0.019,0,0,403.488,1951.2679,4.836
26200.00,0.005,0,0,403.801,1951.974,4.834
26400.00,-0.027,0,0,403.678,1951.3795,4.834
26600.00,-0.004,0,0,403.567,1950.0356,4.832
26800.00,-0.01,0,0,404.468,1956.0072,4.836
27000.00,0.012,0,0,404.024,1953.86,4.836
27200.00,0,0,0,606.647,2846.3875,4.692
27400.00,0,0,0,404.127,1953.55,4.834
27600.00,-0.017,0,0,404.295,1955.1707,4.836
27800.00,0.008,0,0,405.875,1960.3762,4.83
28000.00,0.014,0,0,403.9,1953.2604,4.836
28200.00,0.011,0,0,403.638,1950.3788,4.832
28400.00,0.001,0,0,403.724,1950.7943,4.832
28600.00,0.006,0,0,403.828,1952.1046,4.834
28800.00,-0.011,0,0,406.703,1965.1888,4.832
29000.00,-0.005,0,0,404.075,1953.2987,4.834
29200.00,0.006,0,0,563.963,2665.2891,4.726
29400.00,0.018,0,0,404.082,1954.1405,4.836
29600.00,-0.012,0,0,403.852,1951.4127,4.832
29800.00,0.003,0,0,359.305,1747.6594,4.864
30000.00,0.005,0,0,360.132,1752.4023,4.866
30200.00,0,0,0,361.774,1758.2217,4.86
30400.00,0.005,0,0,364.995,1776.0657,4.866
30600.00,-0.003,0,0,311.591,1525.5496,4.896
30800.00,-0.01,0,0,364.274,1770.3716,4.86
31000.00,0,0,0,311.517,1525.8102,4.898
31200.00,0.031,0,0,405.233,1958.8964,4.834
31400.00,0.007,0,0,564.651,2668.5405,4.726
31600.00,0,0,0,404.661,1955.3219,4.832
31800.00,0.009,0,0,403.427,1949.3591,4.832
32000.00,0,0,0,403.858,1953.0573,4.836
32200.00,0.006,0,0,404.887,1958.0334,4.836
32400.00,0.003,0,0,403.184,1948.1849,4.832
32600.00,-0.002,0,0,403.74,1951.6792,4.834
32800.00,0,0,0,403.925,1951.7655,4.832
33000.00,0.007,0,0,404.722,1956.4261,4.834
33200.00,0.018,0,0,403.649,1950.4318,4.832
33400.00,0.014,0,0,564.612,2666.0979,4.722
33600.00,0.01,0,0,404.244,1954.924,4.836
33800.00,-0.005,0,0,404.417,1954.1428,4.832
34000.00,-0.011,0,0,404.409,1954.1041,4.832
34200.00,0.002,0,0,403.78,1952.6801,4.836
34400.00,-0.003,0,0,403.595,1950.1709,4.832
34600.00,0.026,0,0,403.94,1951.0302,4.83
34800.00,0.003,0,0,403.459,1950.3209,4.834
35000.00,-0.009,0,0,404.187,1953.0315,4.832
35200.00,0.02,0,0,404.508,1955.3917,4.834
35400.00,-0.014,0,0,444.958,2137.5781,4.804
35600.00,-0.009,0,0,564.018,2661.0369,4.718
35800.00,-0.004,0,0,404.138,1953.6031,4.834
36000.00,0.002,0,0,404.619,1955.1189,4.832
36200.00,0,0,0,357.809,1740.3829,4.864
36400.00,-0.003,0,0,357.703,1739.8673,4.864
36600.00,-0.007,0,0,362.22,1760.3893,4.86
36800.00,0.014,0,0,425.825,2049.9216,4.814
37000.00,0.016,0,0,364.917,1772.7667,4.858
37200.00,-0.008,0,0,369.706,1797.5105,4.862
37400.00,-0.001,0,0,311.764,1527.02,4.898
37600.00,-0.02,0,0,362.925,1765.993,4.866
37800.00,0.022,0,0,362.604,1764.4312,4.866
38000.00,0.008,0,0,403.315,1948.818,4.832
38200.00,0.004,0,0,403.624,1950.311,4.832
38400.00,-0.012,0,0,404.624,1955.1431,4.832
38600.00,-0.01,0,0,404.961,1957.5815,4.834
38800.00,-0.011,0,0,449.462,2158.3167,4.802
39000.00,-0.012,0,0,404.381,1955.5865,4.836
39200.00,0,0,0,404.073,1953.2889,4.834
39400.00,-0.012,0,0,564.342,2663.6941,4.72
39600.00,0,0,0,404.426,1954.9954,4.834
39800.00,-0.014,0,0,403.871,1952.3125,4.834
40000.00,-0.009,0,0,405.088,1958.1956,4.834
40200.00,0.013,0,0,403.422,1950.142,4.834
40400.00,-0.006,0,0,404.323,1954.4974,4.834
40600.00,-0.002,0,0,404.392,1953.2134,4.83
40800.00,-0.001,0,0,403.676,1952.1771,4.836
41000.00,0.016,0,0,404.491,1954.5004,4.832
41200.00,0.024,0,0,404.108,1954.2662,4.836
41400.00,0.009,0,0,565.004,2665.689,4.718
41600.00,-0.013,0,0,404.113,1954.2905,4.836
41800.00,0.007,0,0,404.298,1954.3766,4.834
42000.00,-0.002,0,0,404.056,1953.2068,4.834
42200.00,0.014,0,0,403.57,1950.8574,4.834
42400.00,0.01,0,0,403.891,1951.6012,4.832
42600.00,0,0,0,404.784,1957.5354,4.836
42800.00,0.013,0,0,403.772,1950.2188,4.83
43000.00,0.008,0,0,359.37,1748.6945,4.866
43200.00,0.005,0,0,429.03,2067.0664,4.818
43400.00,0.026,0,0,360.659,1754.9668,4.866
43600.00,0.015,0,0,407.507,1968.2587,4.83
43800.00,0.01,0,0,364.732,1772.5975,4.86
44000.00,0.017,0,0,367.447,1785.0574,4.858
44200.00,-0.007,0,0,411.061,1987.069,4.834
44400.00,0.009,0,0,366.892,1782.3612,4.858
44600.00,-0.014,0,0,366.997,1783.6055,4.86
44800.00,-0.012,0,0,366.96,1782.6915,4.858
45000.00,-0.024,0,0,404.034,1952.2922,4.832
45200.00,-0.005,0,0,564.979,2667.8308,4.722
45400.00,0.002,0,0,403.763,1951.7904,4.834
45600.00,-0.008,0,0,404.55,1954.7854,4.832
45800.00,-0.007,0,0,403.957,1951.9202,4.832
46000.00,-0.012,0,0,405.093,1957.4092,4.832
46200.00,-0.001,0,0,406.87,1965.9957,4.832
46400.00,-0.001,0,0,404.056,1953.2068,4.834
46600.00,0.008,0,0,404.438,1954.2443,4.832
46800.00,0.007,0,0,404.426,1954.1863,4.832
47000.00,0.004,0,0,404.13,1951.9479,4.83
47200.00,-0.012,0,0,563.306,2661.0576,4.724
47400.00,0.007,0,0,439.754,2094.1086,4.762
47600.00,-0.012,0,0,406.088,1962.2172,4.832
47800.00,-0.009,0,0,403.343,1950.5667,4.836
48000.00,-0.02,0,0,404.298,1954.3766,4.834
48200.00,-0.014,0,0,404.014,1952.1956,4.832
48400.00,-0.001,0,0,403.928,1952.588,4.834
48600.00,-0.015,0,0,406.47,1963.2501,4.83
48800.00,0.007,0,0,404.249,1953.3311,4.832
49000.00,-0.004,0,0,403.841,1951.3596,4.832
49200.00,0.003,0,0,404.113,1952.674,4.832
49400.00,0.012,0,0,562.109,2653.1543,4.72
49600.00,-0.004,0,0,404.9,1956.4767,4.832
49800.00,0.004,0,0,403.678,1950.572,4.832
50000.00,0.001,0,0,357.881,1742.1648,4.868
50200.00,-0.01,0,0,312.134,1530.0808,4.902
50400.00,0.022,0,0,311.85,1527.4413,4.898
50600.00,0,0,0,426.521,2054.978,4.818
50800.00,-0.009,0,0,361.905,1758.8584,4.86
51000.00,0.015,0,0,404.199,1953.0895,4.832
51200.00,0.007,0,0,403.787,1951.9064,4.834
51400.00,-0.008,0,0,403.935,1952.6218,4.834
51600.00,-0.001,0,0,420.14,2025.9152,4.822
51800.00,0.01,0,0,444.996,2137.7607,4.804
52000.00,0.004,0,0,564.214,2664.2185,4.722
52200.00,0.007,0,0,404.38,1953.1554,4.83
52400.00,0.013,0,0,403.718,1951.5728,4.834
52600.00,0.028,0,0,403.755,1950.9441,4.832
52800.00,0.012,0,0,403.891,1951.6012,4.832
53000.00,-0.003,0,0,403.824,1951.2775,4.832
53200.00,0.011,0,0,404.145,1952.8285,4.832
53400.00,0.004,0,0,411.616,1987.2821,4.828
53600.00,0.004,0,0,404.57,1955.6914,4.834
53800.00,0.006,0,0,404.496,1955.3337,4.834
54000.00,0.011,0,0,564.043,2664.5393,4.724
54200.00,0.012,0,0,404.483,1954.4618,4.832
54400.00,-0.015,0,0,404.313,1953.6403,4.832
54600.00,-0.014,0,0,445.181,2139.54,4.806
54800.00,-0.012,0,0,403.775,1951.8484,4.834
55000.00,-0.003,0,0,404.644,1955.2397,4.832
55200.00,-0.004,0,0,410.074,1981.4775,4.832
55400.00,-0.003,0,0,409.802,1977.7046,4.826
55600.00,-0.016,0,0,407.914,1969.4088,4.828
55800.00,0.005,0,0,403.558,1949.1852,4.83
56000.00,0.008,0,0,406.248,1962.1777,4.83
56200.00,0.001,0,0,357.932,1742.413,4.868
56400.00,0.001,0,0,362.708,1762.761,4.86
56600.00,-0.004,0,0,362.116,1761.3322,4.864
56800.00,0.003,0,0,311.727,1526.8387,4.898
57000.00,0.025,0,0,364.184,1771.3909,4.864
57200.00,0.008,0,0,403.96,1951.9346,4.832
57400.00,-0.012,0,0,404.372,1954.7344,4.834
57600.00,-0.006,0,0,403.92,1952.5494,4.834
57800.00,-0.008,0,0,403.464,1951.1519,4.836
58000.00,-0.011,0,0,403.826,1951.2871,4.832
58200.00,-0.005,0,0,404.209,1953.1378,4.832
58400.00,0.015,0,0,404.414,1954.1284,4.832
58600.00,-0.008,0,0,564.538,2668.0066,4.726
58800.00,-0.024,0,0,404.303,1954.4008,4.834
59000.00,-0.01,0,0,404.036,1953.9181,4.836
59200.00,-0.019,0,0,404.764,1956.6293,4.834
59400.00,0.004,0,0,403.991,1952.8926,4.834
59600.00,0.006,0,0,313.634,1535.552,4.896
59800.00,0.021,0,0,313.159,1533.2264,4.896
60000.00,0.007,0,0,363.62,1769.375,4.866
60200.00,-0.001,0,0,313.282,1534.4552,4.898
60400.00,0.008,0,0,355.58,1729.541,4.864
60600.00,-0.009,0,0,313.22,1532.8987,4.894
60800.00,-0.015,0,0,363.972,1768.1758,4.858
61000.00,-0.001,0,0,313.152,1533.8185,4.898
61200.00,0.005,0,0,313.152,1533.8185,4.898
61400.00,-0.007,0,0,313.479,1535.42,4.898
61600.00,-0.006,0,0,366.878,1783.0271,4.86
61800.00,0.001,0,0,313.8,1537.62,4.9
62000.00,-0.009,0,0,313.961,1538.4089,4.9
62200.00,0.008,0,0,313.603,1535.4003,4.896
62400.00,0,0,0,360.919,1754.0664,4.86
62600.00,0.009,0,0,364.14,1769.7205,4.86
62800.00,-0.014,0,0,407.556,1968.4955,4.83
63000.00,0.003,0,0,311.875,1527.5637,4.898
63200.00,0.013,0,0,362.437,1762.1687,4.862
63400.00,-0.011,0,0,426.594,2054.4766,4.816
63600.00,-0.006,0,0,362.283,1761.4199,4.862
63800.00,0.002,0,0,408.917,1974.2512,4.828
64000.00,0.002,0,0,353.355,1719.4255,4.866
64200.00,-0.005,0,0,405.362,1959.5199,4.834
64400.00,-0.016,0,0,470.474,2251.6885,4.786
64600.00,0,0,0,405.234,1958.0907,4.832
64800.00,-0.002,0,0,417.103,2011.2706,4.822
65000.00,0,0,0,447.193,2148.3152,4.804
65200.00,-0.01,0,0,447.267,2148.6707,4.804
65400.00,-0.001,0,0,447.465,2149.6218,4.804
65600.00,-0.005,0,0,447.094,2148.7339,4.806
65800.00,0.026,0,0,563.953,2664.114,4.724
66000.00,0.024,0,0,403.807,1951.1953,4.832
66200.00,-0.003,0,0,404.079,1953.318,4.834
66400.00,-0.014,0,0,403.766,1950.9972,4.832
66600.00,0.01,0,0,404,1951.3199,4.83
66800.00,-0.006,0,0,404.424,1954.9857,4.834
67000.00,0.002,0,0,403.98,1953.6473,4.836
67200.00,-0.008,0,0,404.795,1955.9694,4.832
67400.00,0.004,0,0,415.319,2005.9907,4.83
67600.00,-0.03,0,0,404.088,1954.1696,4.836
67800.00,0.005,0,0,564.276,2667.897,4.728
68000.00,-0.009,0,0,403.528,1949.0403,4.83
68200.00,-0.017,0,0,403.763,1950.9828,4.832
68400.00,0.007,0,0,403.824,1951.2775,4.832
68600.00,0.003,0,0,404.059,1951.6049,4.83
68800.00,-0.006,0,0,404.121,1951.9044,4.83
69000.00,0.001,0,0,404.207,1953.9366,4.834
69200.00,0.005,0,0,404.516,1956.2394,4.836
69400.00,-0.003,0,0,404.384,1953.9834,4.832
69600.00,0.015,0,0,404.249,1953.3311,4.832
69800.00,0.019,0,0,564.759,2665.6621,4.72
70000.00,-0.004,0,0,357.809,1740.3829,4.864
70200.00,-0.002,0,0,360.857,1755.9302,4.866
70400.00,0.017,0,0,362.405,1762.7379,4.864
70600.00,-0.016,0,0,361.973,1761.3606,4.866
70800.00,0.008,0,0,359.919,1751.366,4.866
71000.00,0,0,0,405.73,1961.299,4.834
71200.00,-0.012,0,0,314.244,1538.5386,4.896
71400.00,-0.013,0,0,362.424,1761.3807,4.86
71600.00,0.002,0,0,362.19,1760.9678,4.862
71800.00,0.006,0,0,359.857,1750.3444,4.864
72000.00,-0.017,0,0,420.811,2031.6755,4.828
72200.00,-0.007,0,0,360.61,1753.2858,4.862
72400.00,0.017,0,0,359.914,1750.6217,4.864
72600.00,-0.005,0,0,359.568,1748.2196,4.862
72800.00,-0.002,0,0,361.975,1760.6464,4.864
73000.00,-0.02,0,0,403.861,1953.0718,4.836
73200.00,0.005,0,0,405.552,1959.6272,4.832
73400.00,0.002,0,0,404.293,1954.3524,4.834
73600.00,0,0,0,403.948,1953.4926,4.836
73800.00,0.002,0,0,491.825,2346.0054,4.77
74000.00,0.007,0,0,403.932,1953.4152,4.836
74200.00,0,0,0,406.865,1966.7854,4.834
74400.00,0,0,0,404.088,1952.5532,4.832
74600.00,-0.006,0,0,404.323,1953.6886,4.832
74800.00,0.015,0,0,561.181,2653.2639,4.728
75000.00,0,0,0,443.967,2132.8174,4.804
75200.00,-0.007,0,0,404.036,1953.1101,4.834
75400.00,0.024,0,0,403.777,1951.0504,4.832
75600.00,-0.01,0,0,403.801,1952.7816,4.836
75800.00,-0.013,0,0,404.139,1953.608,4.834
76000.00,0.005,0,0,404.115,1952.6836,4.832
76200.00,0.023,0,0,404.221,1954.0044,4.834
76400.00,0.001,0,0,403.653,1951.2587,4.834
76600.00,0,0,0,403.962,1952.7523,4.834
76800.00,0.011,0,0,579.041,2744.6543,4.74
77000.00,-0.003,0,0,563.961,2663.0239,4.722
77200.00,0.011,0,0,404.621,1955.938,4.834
77400.00,0.008,0,0,404.275,1953.4567,4.832
77600.00,-0.011,0,0,403.596,1949.3687,4.83
77800.00,0.006,0,0,404.078,1954.1212,4.836
78000.00,0.012,0,0,357.936,1741.0006,4.864
78200.00,-0.006,0,0,362.384,1762.6357,4.864
78400.00,0.008,0,0,426.542,2054.2263,4.816
78600.00,0,0,0,366.938,1784.0525,4.862
78800.00,0.016,0,0,359.763,1749.8872,4.864
79000.00,0.012,0,0,359.948,1750.787,4.864
79200.00,-0.029,0,0,362.421,1762.8157,4.864
79400.00,-0.001,0,0,427.097,2058.6074,4.82
79600.00,-0.007,0,0,362.014,1760.1121,4.862
79800.00,-0.009,0,0,362.799,1765.38,4.866
80000.00,0.018,0,0,369.697,1795.9879,4.858
80200.00,0.004,0,0,312.159,1528.3304,4.896
80400.00,-0.007,0,0,427.817,2059.511,4.814
80600.00,0.012,0,0,362.793,1765.3508,4.866
80800.00,0.002,0,0,362.342,1762.4315,4.864
81000.00,0,0,0,367.044,1783.0997,4.858
81200.00,-0.005,0,0,311.413,1524.678,4.896
81400.00,0.003,0,0,427.734,2061.678,4.82
81600.00,0.01,0,0,362.342,1761.7069,4.862
81800.00,-0.012,0,0,362.435,1762.8838,4.864
82000.00,0.019,0,0,451.548,2168.3335,4.802
82200.00,0.017,0,0,311.622,1526.9479,4.9
82400.00,0.001,0,0,425.616,2051.4692,4.82
82600.00,-0.012,0,0,364.12,1770.3514,4.862
82800.00,0.004,0,0,312.165,1529.6085,4.9
83000.00,-0.001,0,0,311.35,1525.6151,4.9
83200.00,-0.001,0,0,404.056,1953.2068,4.834
83400.00,-0.001,0,0,404.92,1957.3834,4.834
83600.00,0.013,0,0,564.032,2664.4871,4.724
83800.00,-0.003,0,0,404.87,1957.9513,4.836
84000.00,0.011,0,0,404.007,1952.1616,4.832
84200.00,0.003,0,0,403.821,1952.8784,4.836
84400.00,0,0,0,404.081,1952.5193,4.832
84600.00,0,0,0,403.636,1951.9836,4.836
84800.00,-0.002,0,0,404.155,1952.8768,4.832
85000.00,-0.023,0,0,403.895,1951.6205,4.832
85200.00,-0.005,0,0,403.829,1952.9171,4.836
85400.00,0.009,0,0,404.656,1955.2977,4.832
85600.00,-0.002,0,0,564.043,2665.6672,4.726
85800.00,0.011,0,0,404.384,1953.9834,4.832
86000.00,0.024,0,0,404.088,1952.5532,4.832
86200.00,0.012,0,0,403.915,1952.5251,4.834
86400.00,-0.003,0,0,404.113,1952.674,4.832
86600.00,0.014,0,0,404.57,1956.5005,4.836
86800.00,0.002,0,0,404.927,1959.0367,4.838
87000.00,0.017,0,0,403.928,1952.588,4.834
87200.00,0.001,0,0,404.981,1956.868,4.832
87400.00,-0.012,0,0,404.34,1955.3882,4.836
87600.00,0.014,0,0,563.366,2660.2144,4.722
87800.00,-0.014,0,0,404.364,1954.6957,4.834
88000.00,-0.019,0,0,407.487,1969.7922,4.834
88200.00,-0.004,0,0,404.216,1954.7886,4.836
88400.00,0.009,0,0,404.327,1955.3253,4.836
88600.00,-0.004,0,0,403.965,1951.9587,4.832
88800.00,0.013,0,0,404.199,1952.2811,4.83
89000.00,-0.002,0,0,404.162,1952.9106,4.832
89200.00,0.015,0,0,404.113,1953.4823,4.834
89400.00,-0.002,0,0,564.623,2670.6667,4.73
89600.00,-0.009,0,0,403.414,1949.2964,4.832
89800.00,-0.001,0,0,404.401,1955.6832,4.836
90000.00,-0.006,0,0,404.184,1953.8254,4.834
90200.00,0,0,0,445.131,2139.2998,4.806
90400.00,-0.005,0,0,404.283,1953.4954,4.832
90600.00,0.002,0,0,404.155,1954.4935,4.836
90800.00,-0.006,0,0,403.784,1951.8918,4.834
91000.00,0.008,0,0,404.039,1953.1246,4.834
91200.00,-0.013,0,0,404.738,1955.694,4.832
91400.00,0.013,0,0,567.756,2679.8081,4.72
91600.00,-0.001,0,0,404.424,1954.1768,4.832
91800.00,-0.004,0,0,404.067,1951.6436,4.83
92000.00,-0.01,0,0,404.306,1953.6064,4.832
92200.00,-0.007,0,0,404.15,1952.8527,4.832
92400.00,0.017,0,0,405.626,1960.7961,4.834
92600.00,-0.012,0,0,403.878,1952.3462,4.834
92800.00,0.015,0,0,404.496,1954.5245,4.832
93000.00,-0.012,0,0,414.134,2000.2672,4.83
93200.00,0.01,0,0,406.7,1965.9879,4.834
93400.00,0.006,0,0,372.292,1807.1053,4.854
93600.00,-0.004,0,0,369.97,1796.5743,4.856
93800.00,0.006,0,0,312.004,1528.1956,4.898
94000.00,-0.004,0,0,404.846,1957.0256,4.834
94200.00,-0.003,0,0,404.796,1957.5934,4.836
94400.00,0,0,0,566.389,2672.2231,4.718
94600.00,-0.007,0,0,404.496,1954.5245,4.832
94800.00,0.019,0,0,404.31,1953.6259,4.832
95000.00,0.021,0,0,403.891,1951.6012,4.832
95200.00,0.002,0,0,403.817,1951.2435,4.832
95400.00,0,0,0,407.774,1970.3638,4.832
95600.00,0.012,0,0,404.281,1954.2944,4.834
95800.00,-0.01,0,0,404.947,1957.5138,4.834
96000.00,0.004,0,0,404.898,1957.277,4.834
96200.00,0.021,0,0,403.837,1950.5327,4.83
96400.00,0.007,0,0,564.634,2661.6846,4.714
96600.00,0.021,0,0,453.478,2176.6946,4.8
96800.00,0.002,0,0,409.123,1975.2458,4.828
97000.00,0.002,0,0,408.062,1970.1234,4.828
97200.00,-0.003,0,0,404.429,1955.0098,4.834
97400.00,-0.011,0,0,404.528,1955.4885,4.834
97600.00,-0.001,0,0,404.927,1956.6072,4.832
97800.00,0,0,0,404.384,1954.7924,4.834
98000.00,0.019,0,0,404.175,1954.5902,4.836
98200.00,0.003,0,0,404.458,1954.3411,4.832
98400.00,-0.004,0,0,608.509,2851.4729,4.686
98600.00,0.001,0,0,404.241,1953.2924,4.832
98800.00,-0.009,0,0,403.97,1952.791,4.834
99000.00,0,0,0,357.827,1741.1863,4.866
99200.00,0.007,0,0,362.109,1760.574,4.862
99400.00,-0.002,0,0,311.869,1527.5342,4.898
99600.00,0.024,0,0,364.207,1771.5028,4.864
99800.00,0.001,0,0,311.943,1528.5208,4.9
100000.00,-0.012,0,0,367.243,1784.801,4.86
100200.00,0.003,0,0,311.363,1525.0559,4.898
100400.00,-0.015,0,0,363.269,1766.214,4.862
100600.00,-0.003,0,0,311.326,1524.252,4.896
100800.00,0.012,0,0,362.627,1763.0925,4.862
101000.00,0.012,0,0,362.77,1764.5132,4.864
101200.00,0.011,0,0,399.855,1933.6989,4.836
101400.00,0.001,0,0,360.437,1751.7239,4.86
101600.00,0.03,0,0,404.039,1951.5083,4.83
101800.00,0,0,0,405.705,1960.3665,4.832
102000.00,0,0,0,403.895,1952.4285,4.834
102200.00,-0.021,0,0,403.821,1952.0708,4.834
102400.00,-0.006,0,0,403.957,1952.7281,4.834
102600.00,0.004,0,0,403.804,1950.3732,4.83
102800.00,-0.008,0,0,404.15,1952.8527,4.832
103000.00,0.018,0,0,405.631,1960.8203,4.834
103200.00,0,0,0,564.302,2665.7627,4.724
103400.00,-0.004,0,0,404.323,1954.4974,4.834
103600.00,-0.01,0,0,411.188,1986.038,4.83
103800.00,0,0,0,403.783,1951.0793,4.832
104000.00,0.01,0,0,404.59,1956.5972,4.836
104200.00,0.006,0,0,404.047,1951.547,4.83
104400.00,0.014,0,0,404.047,1951.547,4.83
104600.00,0,0,0,404.17,1952.9495,4.832
104800.00,-0.01,0,0,404.466,1954.3796,4.832
105000.00,0.024,0,0,404.244,1953.3069,4.832
105200.00,-0.006,0,0,415.783,2008.2318,4.83
105400.00,-0.01,0,0,564.806,2668.1436,4.724
105600.00,0.01,0,0,404.54,1956.3555,4.836
105800.00,0.021,0,0,403.812,1952.0273,4.834
106000.00,0,0,0,404.52,1955.4497,4.834
106200.00,-0.007,0,0,404.409,1955.7219,4.836
106400.00,0.009,0,0,404.607,1955.8702,4.834
106600.00,0.008,0,0,357.728,1741.4199,4.868
106800.00,0.001,0,0,363.553,1767.5947,4.862
107000.00,0.012,0,0,362.999,1764.9011,4.862
107200.00,0.01,0,0,362.431,1762.8644,4.864
107400.00,-0.008,0,0,362.814,1764.0016,4.862
107600.00,-0.004,0,0,359.981,1750.2275,4.862
107800.00,-0.019,0,0,419.354,2023.8025,4.826
108000.00,0.016,0,0,360.247,1752.962,4.866
108200.00,-0.001,0,0,359.876,1749.7172,4.862
108400.00,-0.014,0,0,360.37,1752.1189,4.862
108600.00,-0.005,0,0,359.63,1748.5211,4.862
108800.00,0.01,0,0,364.788,1773.5992,4.862
109000.00,0,0,0,311.64,1527.0361,4.9
109200.00,0.003,0,0,363.931,1770.1603,4.864
109400.00,-0.012,0,0,403.227,1949.1993,4.834
109600.00,-0.012,0,0,362.406,1762.0179,4.862
109800.00,0,0,0,416.067,2006.275,4.822
110000.00,0.009,0,0,359.711,1751.0731,4.868
110200.00,0.007,0,0,359.772,1749.2114,4.862
110400.00,-0.009,0,0,367.153,1783.6293,4.858
110600.00,0.005,0,0,357.285,1737.8342,4.864
110800.00,0.012,0,0,404.392,1954.8309,4.834
111000.00,0.014,0,0,562.893,2655.7292,4.718
111200.00,0.005,0,0,411.242,1984.6541,4.826
111400.00,-0.008,0,0,404.565,1954.858,4.832
111600.00,-0.004,0,0,403.738,1951.6696,4.834
111800.00,0.007,0,0,403.985,1951.2474,4.83
112000.00,0,0,0,404.449,1954.2975,4.832
112200.00,0.018,0,0,404.067,1953.2599,4.834
112400.00,0.008,0,0,403.573,1950.8719,4.834
112600.00,-0.004,0,0,404.38,1953.9641,4.832
112800.00,-0.022,0,0,404.158,1954.5081,4.836
113000.00,-0.003,0,0,563.091,2660.042,4.724
113200.00,0,0,0,403.997,1952.1134,4.832
113400.00,0.012,0,0,404.269,1953.4277,4.832
113600.00,0.012,0,0,404.195,1953.0702,4.832
113800.00,0.009,0,0,404.873,1957.9657,4.836
114000.00,-0.007,0,0,404.051,1952.3743,4.832
114200.00,0.002,0,0,403.891,1952.4091,4.834
114400.00,-0.001,0,0,404.491,1954.5004,4.832
114600.00,-0.002,0,0,404.417,1954.1428,4.832
114800.00,-0.012,0,0,404.906,1957.3157,4.834
115000.00,-0.007,0,0,563.93,2659.4939,4.716
115200.00,-0.013,0,0,404.133,1954.3872,4.836
115400.00,0,0,0,403.911,1951.6979,4.832
115600.00,0.01,0,0,403.923,1951.7559,4.832
115800.00,0.009,0,0,358.149,1742.7531,4.866
116000.00,0,0,0,362.394,1763.4093,4.866
116200.00,0.004,0,0,420.288,2028.3099,4.826
116400.00,0.011,0,0,313.022,1532.5557,4.896
116600.00,-0.011,0,0,312.146,1529.5154,4.9
116800.00,-0.011,0,0,362.117,1760.6129,4.862
117000.00,0.001,0,0,362.258,1761.2983,4.862
117200.00,-0.005,0,0,418.873,2018.9679,4.82
117400.00,-0.001,0,0,359.752,1750.5533,4.866
117600.00,-0.002,0,0,399.687,1932.087,4.834
117800.00,0,0,0,362.356,1761.7748,4.862
118000.00,-0.006,0,0,362.257,1761.2935,4.862
118200.00,0.004,0,0,402.822,1946.4358,4.832
118400.00,-0.002,0,0,419.223,2022.3317,4.824
118600.00,-0.005,0,0,369.588,1794.7194,4.856
118800.00,0.005,0,0,311.665,1525.9119,4.896
119000.00,0.01,0,0,364.961,1775.1703,4.864
119200.00,0,0,0,362.276,1761.3859,4.862
119400.00,0.004,0,0,419.219,2023.9894,4.828
119600.00,-0.011,0,0,367.311,1785.8661,4.862
119800.00,-0.012,0,0,446.826,2145.6584,4.802
120000.00,0,0,0,450.622,2164.7881,4.804
120200.00,0.02,0,0,447.29,2147.8867,4.802
120400.00,0.008,0,0,488.706,2333.0825,4.774
120600.00,-0.021,0,0,448.524,2154.7092,4.804
120800.00,-0.003,0,0,609.312,2860.1104,4.694
121000.00,0.013,0,0,447.562,2149.1929,4.802
121200.00,0.005,0,0,447.117,2146.1616,4.8
121400.00,0,0,0,447.562,2150.9832,4.806
121600.00,-0.004,0,0,446.83,2144.7839,4.8
121800.00,-0.012,0,0,404.192,1953.8641,4.834
122000.00,0.021,0,0,404.13,1952.7561,4.832
122200.00,-0.012,0,0,404.044,1953.9568,4.836
122400.00,-0.015,0,0,403.854,1951.4225,4.832
122600.00,0.003,0,0,404.125,1952.7319,4.832
122800.00,0.009,0,0,563.623,2658.0461,4.716
123000.00,0.02,0,0,404.084,1952.5338,4.832
123200.00,-0.02,0,0,404.269,1953.4277,4.832
123400.00,-0.001,0,0,405.281,1957.5072,4.83
123600.00,0.011,0,0,404.33,1953.7224,4.832
123800.00,0.003,0,0,408.835,1975.4906,4.832
124000.00,0,0,0,408.761,1973.498,4.828
124200.00,0.006,0,0,404.244,1952.4984,4.83
124400.00,0,0,0,404.17,1953.7579,4.834
124600.00,0.008,0,0,403.985,1952.8634,4.834
124800.00,-0.01,0,0,455.51,2183.7151,4.794
125000.00,0.013,0,0,400.505,1936.8422,4.836
125200.00,-0.002,0,0,412.069,1991.1173,4.832
125400.00,0.012,0,0,413.594,1996.0048,4.826
125600.00,0,0,0,412.212,1990.1595,4.828
125800.00,0,0,0,464.504,2228.6902,4.798
126000.00,0.018,0,0,401.47,1941.5089,4.836
126200.00,-0.003,0,0,401.803,1942.3158,4.834
126400.00,0.016,0,0,403.761,1951.7806,4.834
126600.00,-0.001,0,0,402.292,1945.484,4.836
126800.00,-0.005,0,0,472.445,2261.1216,4.786
127000.00,-0.009,0,0,361.896,1760.2621,4.864
127200.00,-0.006,0,0,361.847,1760.0237,4.864
127400.00,0.006,0,0,359.73,1751.1656,4.868
127600.00,0.002,0,0,359.878,1751.1664,4.866
127800.00,0.019,0,0,419.057,2020.6929,4.822
128000.00,0.001,0,0,359.199,1747.8624,4.866
128200.00,-0.008,0,0,359.557,1748.8853,4.864
128400.00,0.007,0,0,362.679,1763.3452,4.862
128600.00,0.006,0,0,402.482,1946.403,4.836
128800.00,-0.02,0,0,359.495,1747.8646,4.862
129000.00,0.006,0,0,311.115,1524.4635,4.9
129200.00,0.005,0,0,362.247,1762.694,4.866
129400.00,0.004,0,0,362.223,1762.5771,4.866
129600.00,0.012,0,0,360.396,1753.687,4.866
129800.00,0.008,0,0,361.717,1758.6681,4.862
130000.00,0.007,0,0,311.485,1526.2765,4.9
130200.00,0.004,0,0,362.426,1762.1152,4.862
130400.00,0.015,0,0,362.241,1761.9402,4.864
130600.00,-0.009,0,0,360.217,1751.3751,4.862
130800.00,0.018,0,0,363.024,1764.2966,4.86
131000.00,-0.004,0,0,365.726,1776.6969,4.858
131200.00,-0.013,0,0,367.417,1785.6466,4.86
131400.00,-0.001,0,0,367.015,1783.693,4.86
131600.00,0.012,0,0,359.709,1749.6246,4.864
131800.00,-0.001,0,0,432.658,2081.9502,4.812
132000.00,0.005,0,0,420.959,2031.5483,4.826
132200.00,0.028,0,0,403.903,1951.6593,4.832
132400.00,0.001,0,0,404.01,1952.1763,4.832
132600.00,0,0,0,403.355,1949.0114,4.832
132800.00,0,0,0,404.01,1952.1763,4.832
133000.00,-0.001,0,0,404.491,1954.5004,4.832
133200.00,0.009,0,0,408.921,1975.9061,4.832
133400.00,-0.022,0,0,409.259,1976.7209,4.83
133600.00,-0.001,0,0,563.08,2659.99,4.724
133800.00,0.012,0,0,407.391,1967.6985,4.83
134000.00,0.012,0,0,404.022,1953.0424,4.834
134200.00,0.013,0,0,404.133,1952.7705,4.832
134400.00,0,0,0,404.227,1953.2247,4.832
134600.00,-0.014,0,0,404.647,1956.0636,4.834
134800.00,-0.002,0,0,403.635,1951.1716,4.834
135000.00,0.004,0,0,404.215,1953.9753,4.834
135200.00,-0.002,0,0,404.067,1953.2599,4.834
135400.00,-0.002,0,0,404.437,1955.8574,4.836
135600.00,0.017,0,0,563.793,2663.3582,4.724
135800.00,0.005,0,0,404.252,1954.1543,4.834
136000.00,-0.01,0,0,404.449,1955.1066,4.834
136200.00,0.001,0,0,404.215,1954.7837,4.836
136400.00,-0.002,0,0,404.173,1952.9639,4.832
136600.00,0.013,0,0,404.346,1954.6086,4.834
136800.00,0.026,0,0,445.588,2140.6047,4.804
137000.00,0.005,0,0,403.758,1951.7662,4.834
137200.00,-0.003,0,0,358.637,1745.8448,4.868
137400.00,-0.005,0,0,412.002,1989.9697,4.83
137600.00,-0.004,0,0,357.754,1740.1154,4.864
137800.00,-0.012,0,0,366.818,1782.0017,4.858
138000.00,-0.002,0,0,312.146,1528.2667,4.896
138200.00,0.007,0,0,429.24,2068.0781,4.818
138400.00,0.019,0,0,362.444,1761.4779,4.86
138600.00,0.007,0,0,362.172,1760.8802,4.862
138800.00,0.001,0,0,364.356,1770.7701,4.86
139000.00,0.008,0,0,364.548,1771.7034,4.86
139200.00,0,0,0,360.402,1752.2745,4.862
139400.00,-0.028,0,0,416.462,2009.0127,4.824
139600.00,-0.004,0,0,399.794,1933.4038,4.836
139800.00,0.006,0,0,407.03,1965.9548,4.83
140000.00,0.007,0,0,357.414,1737.7468,4.862
140200.00,-0.017,0,0,363.683,1758.771,4.836
140400.00,-0.002,0,0,426.29,2052.1602,4.814
140600.00,0.016,0,0,367.008,1783.6589,4.86
140800.00,0.014,0,0,403.982,1952.0409,4.832
141000.00,0.002,0,0,403.965,1952.7668,4.834
141200.00,-0.001,0,0,404.668,1955.3557,4.832
141400.00,0.009,0,0,404.582,1954.9402,4.832
141600.00,0.02,0,0,404.841,1957.0015,4.834
141800.00,0,0,0,562.991,2656.1917,4.718
142000.00,0.012,0,0,404.165,1952.9252,4.832
142200.00,0.005,0,0,404.054,1952.3888,4.832
142400.00,-0.011,0,0,404.647,1956.8729,4.836
142600.00,-0.013,0,0,404.141,1952.8092,4.832
142800.00,0.005,0,0,404.116,1951.8802,4.83
143000.00,0.005,0,0,404.116,1953.4968,4.834
143200.00,0.01,0,0,404.326,1955.3204,4.836
143400.00,-0.012,0,0,404.499,1954.5391,4.832
143600.00,-0.004,0,0,404.276,1952.6531,4.83
143800.00,-0.01,0,0,566.57,2671.9441,4.716
144000.00,-0.003,0,0,404.367,1955.5188,4.836
144200.00,0.006,0,0,404.145,1952.8285,4.832
144400.00,0.006,0,0,404.59,1955.7881,4.834
144600.00,0,0,0,403.807,1951.1953,4.832
144800.00,0,0,0,404.013,1952.9989,4.834
145000.00,0.016,0,0,427.66,2056.1895,4.808
145200.00,0.007,0,0,404.35,1953.8191,4.832
145400.00,0.01,0,0,404.449,1955.1066,4.834
145600.00,0.003,0,0,404.795,1957.5886,4.836
145800.00,-0.005,0,0,410.916,1986.3679,4.834
146000.00,0.008,0,0,369.695,1795.2389,4.856
146200.00,-0.017,0,0,311.72,1527.428,4.9
146400.00,0,0,0,362.463,1763.02,4.864
146600.00,0,0,0,362.759,1763.0088,4.86
146800.00,0,0,0,415.507,2005.2368,4.826
147000.00,0.001,0,0,369.522,1795.1378,4.858
147200.00,0.01,0,0,311.788,1526.514,4.896
147400.00,0,0,0,369.596,1796.2367,4.86
147600.00,-0.008,0,0,362.105,1760.5546,4.862
147800.00,0.012,0,0,462.122,2216.3372,4.796
148000.00,-0.015,0,0,367.276,1784.9614,4.86
148200.00,-0.01,0,0,314.404,1538.6931,4.894
148400.00,0.014,0,0,362.191,1761.697,4.864
148600.00,-0.013,0,0,362.648,1763.9199,4.864
148800.00,0.002,0,0,415.853,2005.2432,4.822
149000.00,0,0,0,367.004,1784.3734,4.862
149200.00,0.003,0,0,311.677,1525.9706,4.896
149400.00,0,0,0,362.413,1762.052,4.862
149600.00,0,0,0,362.623,1762.3478,4.86
149800.00,-0.021,0,0,415.33,2004.3826,4.826
150000.00,0.015,0,0,364.592,1772.6464,4.862
150200.00,0.003,0,0,311.627,1526.9724,4.9
150400.00,0.002,0,0,362.908,1765.1844,4.864
150600.00,-0.003,0,0,362.501,1763.2048,4.864
150800.00,-0.007,0,0,418.033,2015.7551,4.822
151000.00,-0.01,0,0,365.271,1775.217,4.86
151200.00,0.024,0,0,312.164,1529.6036,4.9
151400.00,-0.001,0,0,362.321,1761.6047,4.862
151600.00,0,0,0,362.482,1762.3875,4.862
151800.00,0.029,0,0,427.668,2058.7937,4.814
152000.00,-0.009,0,0,311.812,1527.2551,4.898
152200.00,0.001,0,0,359.997,1750.3054,4.862
152400.00,0.014,0,0,359.898,1751.2638,4.866
152600.00,0.03,0,0,359.775,1749.2261,4.862
152800.00,0.023,0,0,419.007,2021.2897,4.824
153000.00,-0.005,0,0,362.626,1762.3624,4.86
153200.00,-0.018,0,0,362.744,1762.9358,4.86
153400.00,-0.005,0,0,362.596,1762.9418,4.862
153600.00,-0.011,0,0,359.602,1749.104,4.864
153800.00,0.006,0,0,362.663,1763.2675,4.862
154000.00,-0.004,0,0,404.11,1953.4678,4.834
154200.00,0.033,0,0,403.784,1950.2767,4.83
154400.00,0.024,0,0,451.477,2167.0896,4.8
154600.00,-0.007,0,0,404.06,1952.4178,4.832
154800.00,0.008,0,0,404.221,1953.1958,4.832
155000.00,0.006,0,0,403.875,1953.1395,4.836
155200.00,0.001,0,0,404.719,1954.7927,4.83
155400.00,0.01,0,0,404.299,1955.1901,4.836
155600.00,-0.004,0,0,564.789,2666.9338,4.722
155800.00,0.007,0,0,404.119,1953.5112,4.834
156000.00,0.014,0,0,445.239,2139.8188,4.806
156200.00,0,0,0,404.539,1953.1144,4.828
156400.00,0.006,0,0,403.963,1951.9492,4.832
156600.00,0.012,0,0,404.087,1952.5483,4.832
156800.00,-0.002,0,0,404.21,1953.1426,4.832
157000.00,0.012,0,0,403.926,1950.9625,4.83
157200.00,0.001,0,0,407.477,1968.9287,4.832
157400.00,-0.007,0,0,404.429,1955.0098,4.834
157600.00,0.012,0,0,563.509,2659.7622,4.72
157800.00,-0.007,0,0,404.165,1954.542,4.836
158000.00,0.005,0,0,404.63,1955.1721,4.832
158200.00,0.006,0,0,409.978,1979.3738,4.828
158400.00,0.019,0,0,408.304,1972.1083,4.83
158600.00,-0.005,0,0,407.211,1966.8291,4.83
158800.00,-0.012,0,0,403.632,1949.5425,4.83
159000.00,0.014,0,0,357.865,1742.0868,4.868
159200.00,-0.013,0,0,361.585,1758.7494,4.864
159400.00,0.022,0,0,311.85,1528.0651,4.9
159600.00,-0.012,0,0,362.32,1761.5999,4.862
159800.00,0.001,0,0,362.646,1762.4596,4.86
160000.00,0.004,0,0,362.276,1762.8351,4.866
160200.00,0.02,0,0,363.27,1766.9452,4.864
160400.00,-0.013,0,0,311.658,1527.1241,4.9
160600.00,0.008,0,0,366.893,1782.3661,4.858
160800.00,0,0,0,404.918,1957.3737,4.834
161000.00,-0.007,0,0,404.079,1954.1261,4.836
161200.00,0.008,0,0,404.232,1954.866,4.836
161400.00,-0.001,0,0,565.189,2666.5618,4.718
161600.00,-0.024,0,0,405.12,1958.3501,4.834
161800.00,0.005,0,0,404.343,1956.2113,4.838
162000.00,0.013,0,0,403.652,1950.4464,4.832
162200.00,0,0,0,404.528,1955.4885,4.834
162400.00,0.01,0,0,447.254,2148.6082,4.804
162600.00,-0.011,0,0,404.404,1954.08,4.832
162800.00,0.037,0,0,404.367,1953.9012,4.832
163000.00,0.003,0,0,404.022,1953.0424,4.834
163200.00,0.001,0,0,404.424,1954.9857,4.834
163400.00,0.012,0,0,563.879,2663.7644,4.724
163600.00,-0.006,0,0,404.355,1953.8434,4.832
163800.00,0.025,0,0,404.738,1956.5035,4.834
164000.00,0.011,0,0,404.577,1955.7252,4.834
164200.00,0,0,0,445.185,2139.5591,4.806
164400.00,-0.009,0,0,404.087,1954.1648,4.836
164600.00,0.021,0,0,404.424,1955.7946,4.836
164800.00,-0.002,0,0,404.289,1953.5244,4.832
165000.00,-0.004,0,0,404.375,1953.9399,4.832
165200.00,0.001,0,0,404.343,1952.9766,4.83
165400.00,0.007,0,0,564.917,2665.2783,4.718
165600.00,-0.014,0,0,404.289,1952.7158,4.83
165800.00,-0.011,0,0,404.301,1952.7738,4.83
166000.00,-0.006,0,0,357.822,1741.1619,4.866
166200.00,0.016,0,0,357.267,1737.7466,4.864
166400.00,0,0,0,362.302,1762.9615,4.866
166600.00,-0.002,0,0,417.655,2013.9324,4.822
166800.00,-0.019,0,0,369.473,1795.6388,4.86
167000.00,-0.002,0,0,351.911,1713.1028,4.868
167200.00,-0.012,0,0,311.726,1526.2106,4.896
167400.00,0.003,0,0,437.216,2103.009,4.81
167600.00,-0.006,0,0,364.321,1771.3287,4.862
167800.00,0.013,0,0,364.802,1773.6674,4.862
168000.00,-0.004,0,0,362.221,1762.5675,4.866
168200.00,0.002,0,0,361.987,1759.9808,4.862
168400.00,0,0,0,405.046,1957.1821,4.832
168600.00,0.012,0,0,427.713,2059.866,4.816
168800.00,-0.006,0,0,364.499,1772.1941,4.862
169000.00,-0.012,0,0,408.971,1976.1478,4.832
169200.00,0,0,0,367.405,1784.8534,4.858
169400.00,-0.02,0,0,311.745,1526.3035,4.896
169600.00,-0.012,0,0,426.52,2053.2673,4.814
169800.00,0.006,0,0,362.036,1759.4951,4.86
170000.00,0,0,0,362.549,1762.7133,4.862
170200.00,0.009,0,0,361.994,1760.7386,4.864
170400.00,0.004,0,0,311.775,1527.6975,4.9
170600.00,0.011,0,0,435.846,2095.5476,4.808
170800.00,0,0,0,364.956,1774.416,4.862
171000.00,0.013,0,0,364.543,1770.9498,4.858
171200.00,0.003,0,0,359.878,1750.4465,4.864
171400.00,0.01,0,0,311.621,1525.6964,4.896
171600.00,0.019,0,0,427.223,2056.6516,4.814
171800.00,0.004,0,0,365.031,1774.0508,4.86
172000.00,-0.006,0,0,357.409,1738.4373,4.864
172200.00,0,0,0,357.57,1739.9357,4.866
172400.00,-0.01,0,0,362.075,1760.4087,4.862
172600.00,0.003,0,0,364.765,1773.4875,4.862
172800.00,0.013,0,0,359.384,1748.0437,4.864
173000.00,0.012,0,0,359.731,1750.451,4.866
173200.00,-0.019,0,0,359.348,1749.306,4.868
173400.00,-0.023,0,0,364.693,1774.5962,4.866
173600.00,0,0,0,311.947,1527.2925,4.896
173800.00,-0.008,0,0,311.947,1527.9163,4.898
174000.00,-0.005,0,0,362.441,1762.913,4.864
174200.00,-0.007,0,0,362.466,1763.7596,4.866
174400.00,-0.013,0,0,358.874,1745.563,4.864
174600.00,-0.017,0,0,367.392,1784.0555,4.856
174800.00,0,0,0,312.194,1529.1261,4.898
175000.00,-0.016,0,0,362.381,1761.8965,4.862
175200.00,-0.014,0,0,402.278,1943.8073,4.832
175400.00,0.008,0,0,359.152,1746.197,4.862
175600.00,-0.018,0,0,365.082,1775.0287,4.862
175800.00,0,0,0,362.54,1763.3945,4.864
176000.00,0.016,0,0,362.743,1765.1075,4.866
176200.00,0,0,0,359.817,1750.8695,4.866
176400.00,-0.006,0,0,407.225,1967.7112,4.832
176600.00,-0.005,0,0,365.389,1774.329,4.856
176800.00,-0.015,0,0,311.627,1526.349,4.898
177000.00,0,0,0,362.242,1761.9451,4.864
177200.00,-0.007,0,0,362.501,1761.7549,4.86
177400.00,0.006,0,0,428.297,2061.8218,4.814
177600.00,0.013,0,0,362.013,1761.5553,4.866
177800.00,0.008,0,0,362.359,1762.5142,4.864
178000.00,0.008,0,0,404.104,1954.2469,4.836
178200.00,-0.014,0,0,403.721,1950.7798,4.832
178400.00,0,0,0,404.733,1954.8604,4.83
178600.00,0.008,0,0,410.111,1979.1957,4.826
178800.00,-0.012,0,0,569.843,2687.3796,4.716
179000.00,-0.004,0,0,404.475,1954.4231,4.832
179200.00,-0.01,0,0,404.384,1954.7924,4.834
179400.00,0,0,0,404.179,1952.9928,4.832
179600.00,0.018,0,0,404.13,1952.7561,4.832
179800.00,-0.01,0,0,404.13,1953.5645,4.834
180000.00,-0.012,0,0,403.986,1953.6763,4.836
180200.00,-0.023,0,0,404.196,1953.0751,4.832
180400.00,0.016,0,0,403.695,1950.6542,4.832
180600.00,0,0,0,404.584,1955.7592,4.834
180800.00,0.011,0,0,403.967,1951.1606,4.83
181000.00,0,0,0,564.862,2667.2783,4.722
181200.00,0.007,0,0,403.868,1952.298,4.834
181400.00,-0.003,0,0,404.386,1953.1843,4.83
181600.00,-0.005,0,0,404.509,1953.7784,4.83
181800.00,0.012,0,0,404.357,1954.6617,4.834
182000.00,-0.002,0,0,404.093,1953.3855,4.834
182200.00,0,0,0,447.36,2147.3281,4.8
182400.00,-0.015,0,0,447.278,2148.7236,4.804
182600.00,-0.002,0,0,447.525,2149.0151,4.802
182800.00,-0.004,0,0,447.772,2150.2012,4.802
183000.00,0.02,0,0,451.856,2169.8125,4.802
183200.00,-0.006,0,0,400.827,1938.3993,4.836
183400.00,-0.018,0,0,451.063,2164.2002,4.798
183600.00,0,0,0,353.766,1721.4254,4.866
183800.00,0.004,0,0,470.673,2250.7583,4.782
184000.00,0,0,0,405.487,1960.1241,4.834
184200.00,0.008,0,0,362.183,1760.2095,4.86
184400.00,0.006,0,0,363.466,1759.1755,4.84
184600.00,0.007,0,0,312.449,1531.0001,4.9
184800.00,0.002,0,0,429.754,2071.4143,4.82
185000.00,0.012,0,0,363.713,1768.3727,4.862
185200.00,0.002,0,0,362.171,1761.5996,4.864
185400.00,-0.005,0,0,360.097,1752.2319,4.866
185600.00,0.008,0,0,358.197,1742.9866,4.866
185800.00,0.004,0,0,360.616,1754.0361,4.864
186000.00,0.002,0,0,312.936,1532.1346,4.896
186200.00,-0.017,0,0,362.14,1761.449,4.864
186400.00,0.012,0,0,367.306,1785.8418,4.862
186600.00,-0.015,0,0,312.781,1532.0013,4.898
186800.00,-0.003,0,0,358.704,1745.4537,4.866
187000.00,-0.008,0,0,312.405,1529.5348,4.896
187200.00,0.006,0,0,362.757,1762.999,4.86
187400.00,-0.003,0,0,362.475,1763.8035,4.866
187600.00,-0.003,0,0,359.76,1749.1532,4.862
187800.00,0.001,0,0,416.754,2010.4213,4.824
188000.00,0,0,0,369.319,1794.1516,4.858
188200.00,0.006,0,0,369.332,1792.7375,4.854
188400.00,-0.007,0,0,311.627,1526.349,4.898
188600.00,-0.015,0,0,361.6,1758.8224,4.864
188800.00,0.011,0,0,311.614,1526.2854,4.898
189000.00,0,0,0,364.358,1770.0511,4.858
189200.00,0.002,0,0,361.87,1758.6882,4.86
189400.00,0,0,0,359.883,1750.4708,4.864
189600.00,-0.027,0,0,419.354,2022.9636,4.824
189800.00,-0.014,0,0,361.927,1760.4128,4.864
190000.00,0.008,0,0,368.887,1792.053,4.858
190200.00,0.013,0,0,362.297,1762.2125,4.864
190400.00,-0.007,0,0,404.148,1954.4597,4.836
190600.00,-0.008,0,0,405.284,1959.1429,4.834
190800.00,0.007,0,0,563.668,2659.3857,4.718
191000.00,-0.012,0,0,404.116,1951.8802,4.83
191200.00,0.005,0,0,449.83,2158.2842,4.798
191400.00,0.002,0,0,404.454,1955.1307,4.834
191600.00,0.008,0,0,444.638,2136.9304,4.806
191800.00,-0.003,0,0,404.421,1954.9711,4.834
192000.00,-0.004,0,0,404.039,1951.5083,4.83
192200.00,0.004,0,0,404.273,1952.6385,4.83
192400.00,0.018,0,0,404.475,1954.4231,4.832
192600.00,0.009,0,0,404.611,1956.6987,4.836
192800.00,0,0,0,564.7,2661.9961,4.714
193000.00,0,0,0,561.035,2649.2073,4.722
193200.00,0.006,0,0,404.431,1954.2104,4.832
193400.00,0.031,0,0,404.255,1954.1687,4.834
193600.00,-0.008,0,0,404.391,1954.0172,4.832
193800.00,-0.015,0,0,404.329,1954.5265,4.834
194000.00,-0.01,0,0,403.737,1950.0497,4.83
194200.00,0.018,0,0,404.144,1952.0155,4.83
194400.00,-0.003,0,0,444.875,2137.1794,4.804
194600.00,0.004,0,0,403.929,1951.7848,4.832
194800.00,0.004,0,0,404.497,1954.5294,4.832
195000.00,-0.002,0,0,565.245,2670.2173,4.724
195200.00,0.002,0,0,405.299,1959.2155,4.834
195400.00,0,0,0,357.776,1739.507,4.862
195600.00,-0.011,0,0,404.189,1952.2328,4.83
195800.00,0.008,0,0,403.895,1950.8127,4.83
196000.00,-0.01,0,0,404.673,1956.1893,4.834
196200.00,0.011,0,0,405.031,1957.9199,4.834
196400.00,0.008,0,0,404.957,1956.7522,4.832
196600.00,0.006,0,0,564.205,2661.9192,4.718
196800.00,-0.001,0,0,546.765,2586.1985,4.73
197000.00,-0.008,0,0,433.855,2089.4458,4.816
197200.00,0,0,0,404.187,1953.0315,4.832
197400.00,0.013,0,0,407.075,1966.9863,4.832
197600.00,0,0,0,404.397,1954.8551,4.834
197800.00,-0.002,0,0,404.133,1953.579,4.834
198000.00,0.017,0,0,404.293,1954.3524,4.834
198200.00,0.012,0,0,451.203,2164.8718,4.798
198400.00,0.006,0,0,404.93,1958.2415,4.836
198600.00,-0.009,0,0,404.165,1952.9252,4.832
198800.00,0,0,0,564.45,2665.333,4.722
199000.00,0.011,0,0,404.804,1956.0128,4.832
199200.00,-0.004,0,0,404.162,1953.7191,4.834
199400.00,-0.009,0,0,404.491,1955.3096,4.834
199600.00,0.014,0,0,404.059,1953.2212,4.834
199800.00,0.012,0,0,404.91,1958.1448,4.836
200000.00,-0.001,0,0,404.318,1953.6644,4.832
200200.00,0,0,0,404.133,1951.9623,4.83
200400.00,0.001,0,0,403.935,1951.8138,4.832
200600.00,0.007,0,0,364.776,1773.5409,4.862
200800.00,0.003,0,0,365.023,1773.2817,4.858
201000.00,0.007,0,0,365.146,1775.3398,4.862
201200.00,0,0,0,364.628,1772.092,4.86
201400.00,-0.002,0,0,359.735,1749.0315,4.862
201600.00,0.01,0,0,362.586,1763.6183,4.864
201800.00,-0.008,0,0,362.505,1763.2242,4.864
202000.00,0.012,0,0,362.518,1762.5625,4.862
202200.00,-0.003,0,0,366.948,1781.8994,4.856
202400.00,0.002,0,0,311.56,1525.3977,4.896
202600.00,-0.007,0,0,401.035,1939.4053,4.836
202800.00,-0.017,0,0,367.114,1784.9083,4.862
203000.00,-0.001,0,0,362.424,1762.1056,4.862
203200.00,0.01,0,0,357.488,1738.8217,4.864
203400.00,-0.02,0,0,362.165,1760.1219,4.86
203600.00,0,0,0,426.636,2054.679,4.816
203800.00,0.007,0,0,362.055,1761.0354,4.864
204000.00,-0.012,0,0,365.955,1777.8092,4.858
204200.00,0,0,0,357.958,1742.5396,4.868
204400.00,-0.009,0,0,359.938,1751.4584,4.866
204600.00,-0.01,0,0,361.271,1756.4996,4.862
204800.00,-0.005,0,0,311.535,1525.2754,4.896
205000.00,-0.026,0,0,363.764,1768.6206,4.862
205200.00,0.001,0,0,409.778,1977.5887,4.826
205400.00,-0.017,0,0,360.055,1750.5874,4.862
205600.00,0.013,0,0,430.005,2071.7642,4.818
205800.00,-0.011,0,0,380.055,1840.2263,4.842
206000.00,0.006,0,0,362.246,1761.2401,4.862
206200.00,-0.021,0,0,359.759,1749.1483,4.862
206400.00,-0.012,0,0,360.005,1749.6244,4.86
206600.00,-0.004,0,0,363.078,1763.8329,4.858
206800.00,-0.024,0,0,372.601,1810.0957,4.858
207000.00,-0.007,0,0,311.523,1525.2167,4.896
207200.00,0,0,0,362.16,1760.8219,4.862
207400.00,0.017,0,0,359.605,1748.3995,4.862
207600.00,0,0,0,419.264,2023.3682,4.826
207800.00,-0.008,0,0,367.227,1784.7233,4.86
208000.00,-0.021,0,0,404.042,1951.5228,4.83
208200.00,0,0,0,404.252,1954.9628,4.836
208400.00,0.015,0,0,403.82,1952.8735,4.836
208600.00,-0.011,0,0,403.955,1951.9104,4.832
208800.00,0.024,0,0,404.557,1955.6287,4.834
209000.00,0.001,0,0,565.511,2669.2117,4.72
209200.00,-0.009,0,0,404.293,1952.7351,4.83
209400.00,0.003,0,0,404.133,1952.7705,4.832
209600.00,0.02,0,0,404.071,1952.4711,4.832
209800.00,-0.004,0,0,403.923,1951.7559,4.832
210000.00,0.001,0,0,403.898,1952.443,4.834
210200.00,0.016,0,0,404.441,1955.0679,4.834
210400.00,0.012,0,0,403.985,1953.6714,4.836
210600.00,-0.002,0,0,404.145,1952.8285,4.832
210800.00,0.003,0,0,444.971,2136.7507,4.802
211000.00,0.007,0,0,564.695,2665.3604,4.72
211200.00,-0.011,0,0,526.906,2494.373,4.734
211400.00,-0.006,0,0,404.565,1954.858,4.832
211600.00,-0.007,0,0,404.096,1951.7837,4.83
211800.00,0.005,0,0,407.573,1969.3926,4.832
212000.00,0.001,0,0,404.027,1951.4504,4.83
212200.00,-0.004,0,0,404.397,1954.8551,4.834
212400.00,-0.017,0,0,404.693,1956.286,4.834
212600.00,-0.01,0,0,404.088,1952.5532,4.832
212800.00,0,0,0,408.363,1974.0269,4.834
213000.00,-0.012,0,0,410.041,1981.318,4.832
213200.00,0.005,0,0,362.869,1763.5433,4.86
213400.00,0.001,0,0,362.38,1761.1669,4.86
213600.00,0.009,0,0,401.958,1943.8689,4.836
213800.00,-0.008,0,0,359.949,1750.072,4.862
214000.00,0.014,0,0,417.606,2012.861,4.82
214200.00,-0.018,0,0,362.029,1760.9089,4.864
214400.00,0.007,0,0,360.622,1754.7867,4.866
214600.00,-0.001,0,0,362.708,1762.761,4.86
214800.00,-0.007,0,0,362.197,1761.0017,4.862
215000.00,-0.001,0,0,429.112,2070.0361,4.824
215200.00,0.006,0,0,355.624,1730.4664,4.866
215400.00,0.021,0,0,368.422,1789.0573,4.856
215600.00,-0.021,0,0,369.866,1796.809,4.858
215800.00,-0.003,0,0,409.666,1979.506,4.832
216000.00,-0.004,0,0,358.821,1745.3053,4.864
216200.00,0,0,0,356.143,1733.7041,4.868
216400.00,-0.018,0,0,355.316,1728.9678,4.866
216600.00,0.004,0,0,409.21,1975.6659,4.828
216800.00,0,0,0,358.02,1742.1254,4.866
217000.00,-0.013,0,0,355.453,1729.6344,4.866
217200.00,-0.014,0,0,355.607,1730.3837,4.866
217400.00,-0.018,0,0,406.802,1965.6672,4.832
217600.00,-0.002,0,0,407.167,1967.4308,4.832
217800.00,0.02,0,0,447.403,2147.5347,4.8
218000.00,0,0,0,447.637,2149.553,4.802
218200.00,-0.001,0,0,448.024,2149.6191,4.798
218400.00,-0.005,0,0,404.617,1955.9187,4.834
218600.00,-0.002,0,0,447.172,2147.3201,4.802
218800.00,-0.013,0,0,404.247,1952.5131,4.83
219000.00,0.001,0,0,404.445,1955.0872,4.834
219200.00,0.006,0,0,404.17,1952.9495,4.832
219400.00,0.002,0,0,564.498,2664.4304,4.72
219600.00,-0.013,0,0,403.787,1951.0986,4.832
219800.00,-0.009,0,0,548.516,2608.7422,4.756
220000.00,0.003,0,0,404.441,1953.4501,4.83
220200.00,0.006,0,0,403.874,1951.519,4.832
220400.00,0,0,0,449.685,2156.6892,4.796
220600.00,0.004,0,0,404.38,1955.5817,4.836
220800.00,-0.025,0,0,404.614,1954.2856,4.83
221000.00,-0.012,0,0,404.202,1954.7208,4.836
221200.00,0.005,0,0,403.605,1949.4122,4.83
221400.00,0.009,0,0,404.247,1953.3214,4.832
221600.00,-0.005,0,0,408.744,1974.2334,4.83
221800.00,0.002,0,0,397.957,1926.1119,4.84
222000.00,-0.01,0,0,362.216,1760.3699,4.86
222200.00,-0.001,0,0,360.241,1752.9327,4.866
222400.00,0.017,0,0,359.846,1751.0107,4.866
222600.00,0.012,0,0,419.926,2027.4027,4.828
222800.00,-0.004,0,0,360.488,1753.4136,4.864
223000.00,0.009,0,0,359.876,1749.7172,4.862
223200.00,0.002,0,0,362.84,1763.4025,4.86
223400.00,0.011,0,0,362.309,1761.5463,4.862
223600.00,0,0,0,416.996,2012.4229,4.826
223800.00,0.008,0,0,360.322,1751.8855,4.862
224000.00,0.009,0,0,369.973,1797.3287,4.858
224200.00,-0.002,0,0,311.954,1527.9507,4.898
224400.00,0.007,0,0,362.704,1762.7416,4.86
224600.00,-0.012,0,0,429.589,2070.6189,4.82
224800.00,-0.001,0,0,361.932,1759.7134,4.862
225000.00,0,0,0,367.276,1785.6959,4.862
225200.00,-0.005,0,0,313.516,1536.2284,4.9
225400.00,-0.003,0,0,362.969,1766.2072,4.866
225600.00,-0.007,0,0,428.45,2064.272,4.818
225800.00,0,0,0,361.445,1757.3456,4.862
226000.00,0.004,0,0,367.851,1788.4916,4.862
226200.00,-0.02,0,0,404.062,1954.0438,4.836
226400.00,0.019,0,0,403.963,1951.9492,4.832
226600.00,-0.009,0,0,404.346,1954.6086,4.834
226800.00,-0.001,0,0,564.161,2661.7117,4.718
227000.00,-0.003,0,0,403.926,1951.7703,4.832
227200.00,0,0,0,404.124,1952.7271,4.832
227400.00,0,0,0,403.988,1952.0699,4.832
227600.00,0.011,0,0,404.417,1954.1428,4.832
227800.00,0.037,0,0,405.034,1957.9343,4.834
228000.00,0.006,0,0,444.551,2135.623,4.804
228200.00,0.007,0,0,404.627,1954.3484,4.83
228400.00,-0.019,0,0,403.923,1951.7559,4.832
228600.00,-0.007,0,0,404.883,1956.3945,4.832
228800.00,-0.018,0,0,566.636,2675.6553,4.722
229000.00,0.024,0,0,405.389,1958.8396,4.832
229200.00,0.003,0,0,404.229,1954.8514,4.836
229400.00,-0.02,0,0,404.5,1953.735,4.83
229600.00,-0.008,0,0,404.204,1954.7306,4.836
229800.00,-0.004,0,0,404.932,1958.2512,4.836
230000.00,-0.012,0,0,445.065,2138.9824,4.806
230200.00,-0.005,0,0,404.636,1954.3917,4.83
230400.00,-0.012,0,0,405.389,1958.8396,4.832
230600.00,-0.004,0,0,404.756,1958.2095,4.838
230800.00,-0.008,0,0,404.732,1956.4745,4.834
231000.00,-0.013,0,0,563.533,2661.0029,4.722
231200.00,0,0,0,357.75,1740.0959,4.864
231400.00,0.001,0,0,359.749,1750.5387,4.866
231600.00,0,0,0,362.476,1762.3584,4.862
231800.00,0.022,0,0,363.192,1765.8395,4.862
232000.00,0.013,0,0,420.092,2024.8435,4.82
232200.00,-0.015,0,0,359.774,1749.9407,4.864
232400.00,0.009,0,0,362.205,1760.3163,4.86
232600.00,-0.006,0,0,367.179,1785.2242,4.862
232800.00,0.003,0,0,313.548,1535.131,4.896
233000.00,-0.01,0,0,426.645,2053.8691,4.814
233200.00,0,0,0,362.513,1763.2632,4.864
233400.00,0.012,0,0,359.761,1749.158,4.862
233600.00,0.01,0,0,359.89,1750.505,4.864
233800.00,0.007,0,0,390.641,1890.7025,4.84
234000.00,-0.009,0,0,419.409,2021.5514,4.82
234200.00,0.003,0,0,367.308,1784.3822,4.858
234400.00,0.008,0,0,364.927,1775.0049,4.864
234600.00,0,0,0,359.812,1750.8453,4.866
234800.00,0.012,0,0,360.066,1752.0813,4.866
235000.00,0.009,0,0,470.759,2257.7603,4.796
235200.00,0,0,0,366.885,1783.7949,4.862
235400.00,-0.006,0,0,403.624,1950.311,4.832
235600.00,0.004,0,0,403.044,1948.3148,4.834
235800.00,-0.025,0,0,405.204,1957.9457,4.832
236000.00,0.012,0,0,403.97,1952.791,4.834
236200.00,-0.016,0,0,404.192,1953.0555,4.832
236400.00,-0.008,0,0,404.685,1956.2473,4.834
236600.00,-0.009,0,0,563.947,2660.7019,4.718
236800.00,0,0,0,404.139,1952.7996,4.832
237000.00,0,0,0,312.869,1531.8065,4.896
237200.00,0,0,0,313.844,1537.2078,4.898
237400.00,0.007,0,0,313.362,1534.847,4.898
237600.00,-0.018,0,0,363.872,1767.6902,4.858
237800.00,0.004,0,0,313.288,1533.858,4.896
238000.00,-0.008,0,0,313.665,1535.7039,4.896
238200.00,0.015,0,0,353.229,1719.5188,4.868
238400.00,-0.003,0,0,408.935,1977.6096,4.836
238600.00,0,0,0,314.701,1542.0349,4.9
238800.00,-0.009,0,0,313.368,1534.8765,4.898
239000.00,0.019,0,0,313.054,1532.7123,4.896
239200.00,0,0,0,362.638,1763.146,4.862
239400.00,-0.016,0,0,313.597,1535.9979,4.898
239600.00,0.008,0,0,313.208,1533.4664,4.896
239800.00,-0.026,0,0,314.862,1541.5643,4.896
240000.00,0,0,0,362.428,1762.125,4.862
240200.00,0,0,0,405.25,1958.168,4.832
240400.00,-0.004,0,0,311.388,1525.8013,4.9
240600.00,0.013,0,0,365.009,1773.9438,4.86
240800.00,0,0,0,364.743,1773.3805,4.862
241000.00,-0.013,0,0,406.894,1966.9257,4.834
241200.00,-0.008,0,0,367.07,1783.2261,4.858
241400.00,-0.012,0,0,447.077,2147.7578,4.804
241600.00,-0.011,0,0,446.669,2145.7979,4.804
241800.00,0.001,0,0,447.406,2148.4436,4.802
242000.00,0,0,0,446.731,2146.0957,4.804
242200.00,0,0,0,449.878,2159.4146,4.8
242400.00,-0.005,0,0,448.57,2153.1362,4.8
242600.00,-0.018,0,0,405.631,1959.1978,4.83
242800.00,-0.027,0,0,355.39,1730.0386,4.868
243000.00,-0.01,0,0,355.198,1728.3936,4.866
243200.00,0.028,0,0,355.149,1728.155,4.866
243400.00,0.012,0,0,406.512,1965.079,4.834
243600.00,-0.003,0,0,313.553,1535.1555,4.896
243800.00,-0.005,0,0,313.454,1535.2976,4.898
244000.00,0.002,0,0,314.17,1539.4331,4.9
244200.00,-0.012,0,0,365.127,1776.7081,4.866
244400.00,-0.004,0,0,321.026,1571.1013,4.894
244600.00,-0.018,0,0,313.103,1532.9523,4.896
244800.00,-0.015,0,0,313.51,1535.5719,4.898
245000.00,-0.002,0,0,365.829,1780.124,4.866
245200.00,0.019,0,0,313.208,1534.0928,4.898
245400.00,-0.002,0,0,313.77,1536.2179,4.896
245600.00,-0.013,0,0,314.103,1537.8483,4.896
245800.00,0.002,0,0,404.226,1954.0286,4.834
246000.00,0.012,0,0,564.194,2661.8672,4.718
246200.00,-0.019,0,0,404.579,1956.5441,4.836
246400.00,-0.013,0,0,359.69,1748.8127,4.862
246600.00,0.001,0,0,365.848,1776.5579,4.856
246800.00,0,0,0,357.876,1740.7089,4.864
247000.00,-0.012,0,0,362.775,1763.812,4.862
247200.00,0.004,0,0,427.306,2057.9058,4.816
247400.00,0.012,0,0,361.929,1759.6987,4.862
247600.00,0,0,0,360.782,1754.1222,4.862
247800.00,0.004,0,0,359.856,1749.6198,4.862
248000.00,0.004,0,0,359.868,1749.6782,4.862
248200.00,0.008,0,0,418.573,2018.359,4.822
248400.00,-0.004,0,0,363.306,1767.847,4.866
248600.00,-0.014,0,0,311.227,1523.7673,4.896
248800.00,0.018,0,0,357.555,1739.1475,4.864
249000.00,-0.004,0,0,357.567,1739.2058,4.864
249200.00,-0.012,0,0,607.867,2853.3276,4.694
249400.00,0.002,0,0,404.014,1953.0038,4.834
249600.00,0.013,0,0,448.097,2151.7617,4.802
249800.00,0,0,0,404.236,1954.0768,4.834
250000.00,-0.015,0,0,403.911,1952.5059,4.834
250200.00,0,0,0,404.725,1955.6311,4.832
250400.00,0.008,0,0,404.516,1953.8123,4.83
250600.00,-0.003,0,0,404.195,1952.2618,4.83
250800.00,0.012,0,0,404.195,1953.8787,4.834
251000.00,0.009,0,0,404.553,1954.8,4.832
251200.00,-0.002,0,0,564.015,2661.0227,4.718
251400.00,0,0,0,404.306,1954.4153,4.834
251600.00,0.003,0,0,405.466,1959.2117,4.832
251800.00,-0.024,0,0,404.219,1954.8031,4.836
252000.00,-0.002,0,0,404.269,1953.4277,4.832
252200.00,0.008,0,0,404.355,1955.4608,4.836
252400.00,0.012,0,0,404.437,1955.0486,4.834
252600.00,-0.005,0,0,406.806,1964.8729,4.83
252800.00,-0.006,0,0,404.079,1953.318,4.834
253000.00,0.012,0,0,451.011,2165.7549,4.802
253200.00,0.008,0,0,360.433,1751.7045,4.86
253400.00,-0.006,0,0,314.379,1539.1996,4.896
253600.00,0.006,0,0,314.639,1539.8433,4.894
253800.00,-0.006,0,0,313.442,1535.2388,4.898
254000.00,-0.012,0,0,360.927,1755.5488,4.864
254200.00,-0.008,0,0,360.26,1753.0253,4.866
254400.00,0.007,0,0,314.287,1537.4919,4.892
254600.00,0.016,0,0,315.527,1545.4512,4.898
254800.00,-0.005,0,0,412.15,1990.6844,4.83
255000.00,0,0,0,313.392,1534.9939,4.898
255200.00,0.004,0,0,313.084,1535.3639,4.904
255400.00,0.01,0,0,359.52,1748.7052,4.864
255600.00,0.005,0,0,364.753,1772.6996,4.86
255800.00,-0.006,0,0,403.926,1953.3861,4.836
256000.00,-0.01,0,0,409.357,1977.1942,4.83
256200.00,0.021,0,0,404.05,1953.9857,4.836
256400.00,0.012,0,0,404.242,1954.1058,4.834
256600.00,-0.023,0,0,404.403,1954.8843,4.834
256800.00,-0.004,0,0,404.033,1952.2874,4.832
257000.00,-0.005,0,0,314.681,1540.6781,4.896
257200.00,-0.001,0,0,361.866,1758.6688,4.86
257400.00,-0.01,0,0,354.51,1727.1729,4.872
257600.00,-0.002,0,0,313.583,1536.5568,4.9
257800.00,0.01,0,0,313.311,1533.9707,4.896
258000.00,-0.016,0,0,367.667,1789.0676,4.866
258200.00,0.011,0,0,360.731,1750.9883,4.854
258400.00,-0.017,0,0,313.453,1535.2927,4.898
258600.00,-0.02,0,0,313.503,1534.9106,4.896
258800.00,-0.006,0,0,366.093,1780.6763,4.864
259000.00,-0.008,0,0,313.515,1535.5964,4.898
259200.00,-0.002,0,0,313.947,1538.3403,4.9
259400.00,0.011,0,0,358.996,1746.8746,4.866
259600.00,-0.009,0,0,361.921,1759.6598,4.862
259800.00,0.003,0,0,313.299,1534.5385,4.898
260000.00,-0.005,0,0,314.2,1539.5801,4.9
260200.00,0,0,0,445.284,2140.0349,4.806
260400.00,-0.003,0,0,404.062,1952.4275,4.832
260600.00,0.017,0,0,403.704,1950.6976,4.832
260800.00,-0.004,0,0,564.313,2665.8145,4.724
261000.00,0.019,0,0,404.491,1955.3096,4.834
261200.00,0.004,0,0,404.713,1955.5732,4.832
261400.00,0.011,0,0,403.953,1952.7089,4.834
261600.00,-0.024,0,0,404.261,1955.0061,4.836
261800.00,0.001,0,0,405.359,1950.5875,4.812
262000.00,0,0,0,406.532,1965.1758,4.834
262200.00,0.007,0,0,313.504,1535.5425,4.898
262400.00,0.002,0,0,407.778,1968.7523,4.828
262600.00,0.002,0,0,367.78,1788.8818,4.864
262800.00,0.008,0,0,313.294,1535.1406,4.9
263000.00,-0.004,0,0,316.749,1550.8031,4.896
263200.00,-0.005,0,0,314.368,1539.7744,4.898
263400.00,0.012,0,0,365.041,1774.8292,4.862
263600.00,-0.015,0,0,356.278,1734.3613,4.868
263800.00,-0.013,0,0,313.121,1533.6666,4.898
264000.00,-0.004,0,0,313.615,1537.3407,4.902
264200.00,-0.007,0,0,361.726,1757.9885,4.86
264400.00,0,0,0,313.356,1536.071,4.902
264600.00,0.012,0,0,315.688,1545.6084,4.896
264800.00,0.008,0,0,313.22,1534.1515,4.898
265000.00,0.013,0,0,366.127,1780.8418,4.864
265200.00,0.003,0,0,362.363,1763.2584,4.866
265400.00,-0.012,0,0,311.332,1525.5269,4.9
265600.00,0.019,0,0,362.214,1762.5333,4.866
265800.00,0.014,0,0,362.518,1761.8375,4.86
266000.00,0.012,0,0,364.319,1772.0476,4.864
266200.00,0,0,0,359.864,1750.3785,4.864
266400.00,-0.005,0,0,362.216,1761.0942,4.862
266600.00,0,0,0,362.623,1764.5236,4.866
266800.00,-0.025,0,0,366.967,1784.1936,4.862
267000.00,-0.001,0,0,377.717,1834.9492,4.858
267200.00,-0.002,0,0,359.97,1751.6141,4.866
267400.00,-0.009,0,0,367.041,1784.5532,4.862
267600.00,-0.009,0,0,366.819,1783.474,4.862
267800.00,0.001,0,0,359.568,1748.9387,4.864
268000.00,-0.003,0,0,417.906,2015.1428,4.822
268200.00,-0.008,0,0,359.593,1749.0602,4.864
268400.00,0.01,0,0,407.556,1968.4955,4.83
268600.00,0.021,0,0,312.27,1530.7474,4.902
268800.00,0.006,0,0,362.727,1764.3041,4.864
269000.00,-0.001,0,0,431.564,2078.4121,4.816
269200.00,0.012,0,0,365.005,1774.6543,4.862
269400.00,-0.006,0,0,316.348,1549.4724,4.898
269600.00,-0.013,0,0,362.35,1762.4703,4.864
269800.00,-0.009,0,0,359.457,1747.6799,4.862
270000.00,0.004,0,0,418.432,2018.516,4.824
270200.00,0.02,0,0,359.636,1749.2694,4.864
270400.00,-0.013,0,0,359.816,1749.4254,4.862
270600.00,0.012,0,0,405.802,1961.647,4.834
270800.00,-0.009,0,0,364.561,1771.7665,4.86
271000.00,0.007,0,0,407.251,1967.0223,4.83
271200.00,-0.006,0,0,369.367,1794.3849,4.858
271400.00,0.011,0,0,359.778,1751.3994,4.868
271600.00,-0.005,0,0,370.391,1798.6187,4.856
271800.00,-0.007,0,0,361.303,1757.3778,4.864
272000.00,0.002,0,0,517.178,2456.5955,4.75
272200.00,0.011,0,0,403.849,1952.2061,4.834
272400.00,-0.01,0,0,403.972,1952.8007,4.834
272600.00,0.02,0,0,404.355,1953.8434,4.832
272800.00,0.018,0,0,403.915,1952.5251,4.834
273000.00,0.005,0,0,403.767,1951.8097,4.834
273200.00,0.009,0,0,404.31,1954.4346,4.834
273400.00,0.004,0,0,404.15,1953.6611,4.834
273600.00,0.014,0,0,404.496,1956.1427,4.836
273800.00,0.017,0,0,404.414,1954.1284,4.832
274000.00,0.005,0,0,563.403,2658.1355,4.718
274200.00,0.012,0,0,404.088,1953.3615,4.834
274400.00,0.002,0,0,404.273,1954.2557,4.834
274600.00,-0.007,0,0,404.051,1952.3743,4.832
274800.00,-0.006,0,0,404.357,1954.6617,4.834
275000.00,-0.01,0,0,404.431,1955.0195,4.834
275200.00,-0.018,0,0,404.485,1954.4713,4.832
275400.00,0,0,0,404.238,1953.278,4.832
275600.00,0.013,0,0,404.115,1953.4919,4.834
275800.00,-0.001,0,0,448.281,2152.6455,4.802
276000.00,0.003,0,0,361.515,1759.1321,4.866
276200.00,-0.003,0,0,313.455,1534.0487,4.894
276400.00,-0.006,0,0,313.442,1535.8657,4.9
276600.00,-0.01,0,0,358.042,1741.5162,4.864
276800.00,-0.003,0,0,364.484,1770.6632,4.858
277000.00,-0.008,0,0,379.305,1840.3879,4.852
277200.00,0,0,0,315.096,1542.0798,4.894
277400.00,-0.004,0,0,313.079,1532.8348,4.896
277600.00,-0.002,0,0,362.984,1765.5542,4.864
277800.00,-0.002,0,0,315.386,1544.1298,4.896
278000.00,0.001,0,0,313.498,1534.8861,4.896
278200.00,0.011,0,0,356.215,1733.3423,4.866
278400.00,0.006,0,0,564.995,2666.7764,4.72
278600.00,0.001,0,0,403.821,1951.2631,4.832
278800.00,-0.002,0,0,404.253,1954.1591,4.834
279000.00,-0.009,0,0,404.315,1953.65,4.832
279200.00,-0.02,0,0,404.105,1952.6354,4.832
279400.00,0.012,0,0,404.5,1955.353,4.834
279600.00,0,0,0,404.081,1953.3275,4.834
279800.00,0.01,0,0,447.866,2150.6526,4.802
280000.00,0.005,0,0,366.687,1783.5656,4.864
280200.00,0,0,0,313.01,1532.4969,4.896
280400.00,0.012,0,0,313.868,1537.9532,4.9
280600.00,-0.005,0,0,313.51,1535.5719,4.898
280800.00,-0.014,0,0,364.924,1774.2605,4.862
281000.00,-0.007,0,0,313.071,1534.048,4.9
281200.00,0.013,0,0,313.121,1533.6666,4.898
281400.00,0.002,0,0,312.985,1533.0004,4.898
281600.00,0.001,0,0,363.302,1766.3744,4.862
281800.00,-0.004,0,0,313.411,1535.087,4.898
282000.00,-0.009,0,0,313.312,1533.9756,4.896
282200.00,-0.001,0,0,312.744,1531.8199,4.898
282400.00,0.012,0,0,360.716,1753.8011,4.862
282600.00,0.014,0,0,313.078,1534.0823,4.9
282800.00,0.005,0,0,313.219,1533.5201,4.896
283000.00,0.003,0,0,313.491,1536.106,4.9
283200.00,-0.009,0,0,359.414,1748.9086,4.866
283400.00,0.015,0,0,419.313,2021.9272,4.822
283600.00,0.014,0,0,359.728,1751.1559,4.868
283800.00,-0.001,0,0,366.923,1783.2458,4.86
284000.00,0.011,0,0,311.578,1526.7323,4.9
284200.00,-0.01,0,0,362.204,1761.0359,4.862
284400.00,-0.014,0,0,417.499,2014.8502,4.826
284600.00,0.008,0,0,360.802,1755.6626,4.866
284800.00,0.003,0,0,402.479,1946.3884,4.836
285000.00,-0.012,0,0,403.869,1950.6871,4.83
285200.00,0,0,0,404.202,1953.9125,4.834
285400.00,0.008,0,0,403.993,1953.7102,4.836
285600.00,0.017,0,0,564.808,2665.8936,4.72
285800.00,0.002,0,0,437.237,2100.4866,4.804
286000.00,0.015,0,0,406.853,1966.7274,4.834
286200.00,0,0,0,404.738,1957.313,4.836
286400.00,0.01,0,0,404.158,1954.5081,4.836
286600.00,-0.001,0,0,404.162,1954.5273,4.836
286800.00,0.012,0,0,404.36,1953.8673,4.832
287000.00,-0.007,0,0,404.187,1954.6483,4.836
287200.00,0.008,0,0,404.367,1953.9012,4.832
287400.00,0.006,0,0,404.244,1953.3069,4.832
287600.00,0,0,0,609.977,2854.6921,4.68
287800.00,0,0,0,558.02,2636.0867,4.724
288000.00,0.011,0,0,404.429,1955.0098,4.834
288200.00,0.01,0,0,404.256,1954.9821,4.836
288400.00,0.015,0,0,316.212,1547.5416,4.894
288600.00,-0.007,0,0,313.547,1535.1261,4.896
288800.00,0.008,0,0,313.868,1536.6978,4.896
289000.00,0.011,0,0,364.646,1772.9088,4.862
289200.00,0.007,0,0,313.535,1535.0674,4.896
289400.00,-0.004,0,0,313.646,1535.6107,4.896
289600.00,-0.01,0,0,314.565,1541.3685,4.9
289800.00,-0.012,0,0,361.215,1756.2273,4.862
290000.00,-0.01,0,0,315.676,1546.1809,4.898
290200.00,0.015,0,0,313.658,1536.9242,4.9
290400.00,-0.004,0,0,313.146,1533.7891,4.898
290600.00,-0.023,0,0,361.722,1758.6923,4.862
290800.00,0.014,0,0,313.423,1535.1458,4.898
291000.00,-0.007,0,0,404.577,1955.7252,4.834
291200.00,-0.015,0,0,404.15,1952.8527,4.832
291400.00,0.014,0,0,403.94,1952.646,4.834
291600.00,0.004,0,0,404.594,1954.998,4.832
291800.00,-0.001,0,0,564.265,2665.5879,4.724
292000.00,0.016,0,0,404.125,1952.7319,4.832
292200.00,-0.014,0,0,405.125,1958.3743,4.834
292400.00,0.012,0,0,403.891,1951.6012,4.832
292600.00,0.006,0,0,403.718,1950.7653,4.832
292800.00,0,0,0,404.384,1953.9834,4.832
293000.00,0.001,0,0,403.878,1953.1539,4.836
293200.00,-0.01,0,0,404.034,1953.1003,4.834
293400.00,-0.019,0,0,447.661,2150.5635,4.804
293600.00,-0.005,0,0,404.276,1953.4615,4.832
293800.00,-0.008,0,0,564.249,2662.127,4.718
294000.00,0.022,0,0,404.091,1953.376,4.834
294200.00,0.007,0,0,403.77,1951.0165,4.832
294400.00,-0.01,0,0,403.783,1951.887,4.834
294600.00,-0.004,0,0,403.474,1949.5863,4.832
294800.00,0,0,0,404.363,1955.4995,4.836
295000.00,0,0,0,404.202,1953.104,4.832
295200.00,0.004,0,0,406.428,1963.8601,4.832
295400.00,0,0,0,404.343,1953.7853,4.832
295600.00,0,0,0,404.121,1952.7126,4.832
295800.00,-0.004,0,0,444.971,2137.6406,4.804
296000.00,0.013,0,0,405.997,1960.1536,4.828
296200.00,-0.006,0,0,358.439,1744.881,4.868
296400.00,-0.006,0,0,367.19,1783.809,4.858
296600.00,-0.001,0,0,311.479,1526.2472,4.9
296800.00,-0.025,0,0,426.565,2055.1902,4.818
297000.00,0.019,0,0,362.457,1762.9908,4.864
297200.00,-0.008,0,0,362.075,1760.4087,4.862
297400.00,-0.01,0,0,404.161,1953.7144,4.834
297600.00,0.021,0,0,403.88,1952.356,4.834
297800.00,0,0,0,404.065,1953.2502,4.834
298000.00,0.016,0,0,404.576,1954.9111,4.832
298200.00,-0.023,0,0,563.678,2661.6875,4.722
298400.00,0.009,0,0,403.971,1951.9878,4.832
298600.00,0.003,0,0,404.193,1954.6772,4.836
298800.00,-0.012,0,0,404.218,1954.7982,4.836
299000.00,0.011,0,0,404.057,1952.4033,4.832
299200.00,-0.007,0,0,404.094,1952.582,4.832
299400.00,-0.002,0,0,404.613,1955.8993,4.834
299600.00,0.01,0,0,404.736,1954.8748,4.83
299800.00,-0.021,0,0,407.797,1971.2908,4.834
300000.00,0.007,0,0,404.514,1954.6116,4.832
300200.00,-0.012,0,0,565.11,2665.0588,4.716
300400.00,0.02,0,0,404.514,1954.6116,4.832
300600.00,0,0,0,404.181,1954.6193,4.836
300800.00,-0.019,0,0,447.489,2150.6323,4.806
301000.00,0.016,0,0,449.007,2157.0295,4.804
301200.00,0.012,0,0,447.144,2148.0798,4.804
301400.00,-0.001,0,0,447.539,2149.9773,4.804
301600.00,0.017,0,0,447.699,2149.8506,4.802
301800.00,-0.012,0,0,447.168,2148.1951,4.804
302000.00,0.006,0,0,448.353,2152.0945,4.8
302200.00,0.011,0,0,610.542,2858.5576,4.682
302400.00,0.008,0,0,596.04,2799.0039,4.696
302600.00,-0.008,0,0,400.352,1936.1022,4.836
302800.00,-0.005,0,0,357.699,1741.2788,4.868
303000.00,-0.006,0,0,362.369,1761.1133,4.86
303200.00,-0.001,0,0,363.739,1767.7716,4.86
303400.00,-0.003,0,0,313.966,1537.1775,4.896
303600.00,0.002,0,0,363.51,1768.1127,4.864
303800.00,-0.014,0,0,363.078,1764.5591,4.86
304000.00,0.006,0,0,400.164,1935.9934,4.838
304200.00,0.019,0,0,362.814,1766.1786,4.868
304400.00,-0.003,0,0,362.851,1764.9072,4.864
304600.00,0.007,0,0,362.16,1760.8219,4.862
304800.00,0.008,0,0,362.086,1761.1863,4.864
305000.00,-0.018,0,0,359.617,1749.8964,4.866
305200.00,0,0,0,365.282,1777.4623,4.866
305400.00,0.006,0,0,404.972,1958.4445,4.836
305600.00,0.009,0,0,404.261,1953.389,4.832
305800.00,-0.007,0,0,404.533,1956.3215,4.836
306000.00,0,0,0,404.179,1952.9928,4.832
306200.00,-0.004,0,0,406.882,1966.0537,4.832
306400.00,0.011,0,0,404.204,1952.3053,4.83
306600.00,0.015,0,0,404.475,1956.0411,4.836
306800.00,-0.002,0,0,404.661,1955.3219,4.832
307000.00,0.022,0,0,404.184,1953.8254,4.834
307200.00,0.024,0,0,564.478,2667.7231,4.726
307400.00,0.009,0,0,403.974,1952.8103,4.834
307600.00,-0.022,0,0,403.994,1952.0989,4.832
307800.00,-0.007,0,0,404.364,1953.0781,4.83
308000.00,-0.013,0,0,414.476,2003.5771,4.834
308200.00,0.017,0,0,404.604,1955.8558,4.834
308400.00,-0.002,0,0,404.3,1953.5774,4.832
308600.00,0.008,0,0,447.504,2148.9143,4.802
308800.00,0.004,0,0,404.201,1953.9076,4.834
309000.00,0.024,0,0,406.146,1962.4973,4.832
309200.00,-0.01,0,0,564.651,2664.0234,4.718
309400.00,0.008,0,0,404.492,1956.1233,4.836
309600.00,0,0,0,404.184,1953.8254,4.834
309800.00,0.012,0,0,404.159,1954.5129,4.836
310000.00,-0.02,0,0,404.389,1955.6252,4.836
310200.00,-0.009,0,0,404.451,1954.3071,4.832
310400.00,0,0,0,367.343,1786.0216,4.862
310600.00,0,0,0,359.852,1751.0398,4.866
310800.00,0.013,0,0,417.943,2015.3212,4.822
311000.00,0.009,0,0,367.274,1784.2169,4.858
311200.00,0,0,0,367.052,1783.8728,4.86
311400.00,-0.001,0,0,359.542,1749.5314,4.866
311600.00,0.026,0,0,359.641,1749.2937,4.864
311800.00,0,0,0,363.688,1768.251,4.862
312000.00,0.004,0,0,311.647,1526.4469,4.898
312200.00,0.013,0,0,402.402,1946.0161,4.836
312400.00,0.017,0,0,367.25,1784.8351,4.86
312600.00,0.007,0,0,367.706,1787.0511,4.86
312800.00,-0.01,0,0,417.606,2014.5312,4.824
313000.00,-0.014,0,0,359.599,1748.3704,4.862
313200.00,0.012,0,0,369.497,1794.2775,4.856
313400.00,0.004,0,0,311.757,1526.9856,4.898
313600.00,0.012,0,0,365.247,1775.1005,4.86
313800.00,0.003,0,0,438.94,2111.3013,4.81
314000.00,-0.003,0,0,397.842,1919.1898,4.824
314200.00,0.006,0,0,369.677,1795.8907,4.858
314400.00,0.006,0,0,311.683,1526.6233,4.898
314600.00,-0.017,0,0,362.42,1762.8109,4.864
314800.00,0.002,0,0,425.969,2051.4666,4.816
315000.00,-0.01,0,0,444.732,2142.7188,4.818
315200.00,-0.001,0,0,362.105,1761.2787,4.864
315400.00,0.004,0,0,359.951,1750.0817,4.862
315600.00,0.021,0,0,410.723,1982.9706,4.828
315800.00,0.009,0,0,404.614,1955.9042,4.834
316000.00,-0.024,0,0,564.359,2663.7744,4.72
316200.00,0.019,0,0,447.974,2151.1711,4.802
316400.00,-0.008,0,0,404.252,1954.1543,4.834
316600.00,0,0,0,405.868,1961.9661,4.834
316800.00,0.013,0,0,404.338,1955.3787,4.836
317000.00,0,0,0,409.246,1976.6582,4.83
317200.00,-0.01,0,0,409.665,1978.682,4.83
317400.00,0,0,0,405.548,1958.7969,4.83
317600.00,0.016,0,0,404.647,1956.0636,4.834
317800.00,-0.002,0,0,404.35,1953.8191,4.832
318000.00,0.008,0,0,563.882,2657.012,4.712
318200.00,-0.002,0,0,556.305,2625.7595,4.72
318400.00,0,0,0,403.784,1952.6993,4.836
318600.00,-0.01,0,0,406.759,1965.4594,4.832
318800.00,-0.005,0,0,404.722,1957.2355,4.836
319000.00,0.001,0,0,404.475,1955.2322,4.834
319200.00,-0.005,0,0,404.426,1954.9954,4.834
319400.00,-0.003,0,0,404.105,1952.6354,4.832
319600.00,-0.001,0,0,405.537,1961.1769,4.836
319800.00,0.013,0,0,404.303,1954.4008,4.834
320000.00,0.01,0,0,404.278,1955.0885,4.836
320200.00,-0.001,0,0,565.118,2667.3567,4.72
320400.00,-0.002,0,0,404.105,1951.8271,4.83
320600.00,0.025,0,0,405.13,1955.9677,4.828
320800.00,-0.003,0,0,358.511,1744.5145,4.866
321000.00,0.002,0,0,357.474,1738.7534,4.864
321200.00,-0.02,0,0,362.46,1762.2805,4.862
321400.00,0.001,0,0,364.535,1773.8274,4.866
321600.00,0.011,0,0,315.133,1543.5214,4.898
321800.00,-0.004,0,0,362.116,1760.608,4.862
322000.00,-0.016,0,0,363.263,1765.4583,4.86
322200.00,-0.008,0,0,363.436,1768.4796,4.866
322400.00,-0.022,0,0,404.15,1952.8527,4.832
322600.00,-0.013,0,0,404.113,1953.4823,4.834
322800.00,0.002,0,0,404.182,1953.0073,4.832
323000.00,0.028,0,0,404.54,1954.7372,4.832
323200.00,0,0,0,445.02,2138.7661,4.806
323400.00,-0.007,0,0,404.153,1953.6757,4.834
323600.00,0.002,0,0,404.333,1953.7371,4.832
323800.00,-0.005,0,0,427.092,2053.4585,4.808
324000.00,-0.003,0,0,404.543,1954.7517,4.832
324200.00,-0.012,0,0,563.717,2659.6167,4.718
324400.00,-0.009,0,0,404.563,1955.6575,4.834
324600.00,-0.002,0,0,403.847,1952.1964,4.834
324800.00,0.012,0,0,404.336,1953.7515,4.832
325000.00,-0.008,0,0,404.349,1953.8143,4.832
325200.00,-0.018,0,0,404.46,1955.1597,4.834
325400.00,-0.012,0,0,404.477,1955.2418,4.834
325600.00,-0.008,0,0,404.637,1955.2058,4.832
325800.00,-0.011,0,0,404,1953.744,4.836
326000.00,-0.008,0,0,404.642,1954.4208,4.83
326200.00,-0.012,0,0,460.65,2218.4905,4.816
326400.00,-0.009,0,0,564.865,2667.2925,4.722
326600.00,-0.004,0,0,404.432,1954.2153,4.832
326800.00,-0.009,0,0,404.738,1955.694,4.832
327000.00,-0.012,0,0,404.54,1955.5464,4.834
327200.00,-0.006,0,0,404.466,1955.9976,4.836
327400.00,-0.013,0,0,358.291,1742.7273,4.864
327600.00,0.006,0,0,362.302,1760.7877,4.86
327800.00,0,0,0,426.195,2051.7029,4.814
328000.00,-0.007,0,0,362.611,1763.0146,4.862
328200.00,-0.001,0,0,404.782,1957.5258,4.836
328400.00,-0.003,0,0,404.582,1955.7494,4.834
328600.00,0.013,0,0,404.508,1955.3917,4.834
328800.00,-0.006,0,0,404.627,1954.3484,4.83
329000.00,-0.026,0,0,408.662,1974.6547,4.832
329200.00,-0.006,0,0,404.17,1953.7579,4.834
329400.00,-0.006,0,0,565.706,2671.2637,4.722
329600.00,-0.005,0,0,425.447,2047.2509,4.812
329800.00,-0.003,0,0,404.656,1954.4885,4.83
330000.00,0.011,0,0,406.199,1962.7535,4.832
330200.00,0.016,0,0,404.372,1954.7344,4.834
330400.00,0,0,0,404.602,1955.0367,4.832
330600.00,-0.009,0,0,404.145,1952.0203,4.83
330800.00,-0.022,0,0,448.772,2154.1057,4.8
331000.00,0.026,0,0,407.626,1968.8336,4.83
331200.00,0,0,0,404.553,1955.6093,4.834
331400.00,0,0,0,609.507,2858.5879,4.69
331600.00,0.007,0,0,532.83,2523.4829,4.736
331800.00,-0.001,0,0,404.412,1954.1187,4.832
332000.00,0,0,0,406.325,1964.1752,4.834
332200.00,0.003,0,0,404.486,1954.4762,4.832
332400.00,0.015,0,0,404.585,1955.7639,4.834
332600.00,-0.017,0,0,404.276,1954.2703,4.834
332800.00,0.006,0,0,404.795,1955.1599,4.83
333000.00,-0.007,0,0,404.548,1954.7759,4.832
333200.00,-0.012,0,0,417.988,2014.7023,4.82
333400.00,0.007,0,0,360.513,1754.2563,4.866
333600.00,0.003,0,0,364.919,1774.2362,4.862
333800.00,0,0,0,311.751,1526.3329,4.896
334000.00,0,0,0,360.142,1751.7306,4.864
334200.00,0.003,0,0,425.541,2048.5544,4.814
334400.00,-0.016,0,0,362.932,1763.8496,4.86
334600.00,-0.005,0,0,363.586,1767.028,4.86
334800.00,0,0,0,370.522,1799.2549,4.856
335000.00,0,0,0,370.053,1798.4576,4.86
335200.00,-0.002,0,0,406.271,1962.2889,4.83
335400.00,0,0,0,357.73,1740.7144,4.866
335600.00,-0.005,0,0,358.236,1742.4598,4.864
335800.00,0.004,0,0,367.394,1784.0653,4.856
336000.00,-0.013,0,0,370.159,1798.2323,4.858
336200.00,0.009,0,0,409.784,1980.0762,4.832
336400.00,-0.02,0,0,367.635,1786.7062,4.86
336600.00,0.018,0,0,363.328,1765.7742,4.86
336800.00,0.009,0,0,363,1764.906,4.862
337000.00,-0.001,0,0,357.595,1740.7725,4.868
337200.00,0.01,0,0,429.527,2070.3203,4.82
337400.00,0.005,0,0,425.307,2047.428,4.814
337600.00,-0.006,0,0,362.401,1761.2689,4.86
337800.00,0.007,0,0,359.857,1751.0642,4.866
338000.00,0.007,0,0,360.388,1753.6481,4.866
338200.00,0.009,0,0,359.722,1749.6876,4.864
338400.00,0,0,0,416.713,2010.2235,4.824
338600.00,-0.005,0,0,360.079,1751.4242,4.864
338800.00,-0.004,0,0,360.122,1752.3538,4.866
339000.00,0,0,0,359.727,1749.712,4.864
339200.00,0,0,0,364.972,1773.7639,4.86
339400.00,0.011,0,0,438.956,2111.3784,4.81
339600.00,0.001,0,0,404.821,1956.9048,4.834
339800.00,-0.006,0,0,311.449,1524.8542,4.896
340000.00,0.001,0,0,362.602,1762.2457,4.86
340200.00,0.014,0,0,362.343,1761.7115,4.862
340400.00,0.007,0,0,427.664,2059.6299,4.816
340600.00,0.002,0,0,364.91,1774.1924,4.862
340800.00,-0.002,0,0,312.048,1529.0353,4.9
341000.00,0.012,0,0,362.744,1762.9358,4.86
341200.00,-0.006,0,0,362.28,1762.1299,4.864
341400.00,0.012,0,0,415.616,2005.7629,4.826
341600.00,0,0,0,367.574,1786.4097,4.86
341800.00,-0.007,0,0,311.863,1526.8812,4.896
342000.00,-0.015,0,0,362.25,1761.9839,4.864
342200.00,0,0,0,364.545,1772.4178,4.862
342400.00,-0.005,0,0,479.401,2291.5369,4.78
342600.00,-0.008,0,0,362.04,1759.5145,4.86
342800.00,0,0,0,365.065,1774.946,4.862
343000.00,0.007,0,0,366.781,1783.2893,4.862
343200.00,-0.004,0,0,313.479,1535.42,4.898
343400.00,-0.017,0,0,404.249,1953.3311,4.832
343600.00,0,0,0,571.571,2690.9563,4.708
343800.00,-0.014,0,0,564.314,2663.562,4.72
344000.00,0,0,0,404.31,1954.4346,4.834
344200.00,-0.012,0,0,404.318,1953.6644,4.832
344400.00,-0.005,0,0,404.059,1953.2212,4.834
344600.00,0,0,0,404.047,1952.355,4.832
344800.00,0.012,0,0,404.165,1953.7336,4.834
345000.00,0.007,0,0,404.499,1955.3481,4.834
345200.00,0.004,0,0,404.676,1957.0131,4.836
345400.00,0.015,0,0,423.023,2042.3551,4.828
345600.00,-0.004,0,0,404.375,1954.7488,4.834
345800.00,0.012,0,0,565.63,2669.7734,4.72
346000.00,-0.023,0,0,407.16,1967.3971,4.832
346200.00,-0.003,0,0,404.506,1954.573,4.832
346400.00,-0.003,0,0,404.383,1953.9785,4.832
346600.00,0.009,0,0,404.074,1953.2938,4.834
346800.00,0.008,0,0,404.593,1954.9932,4.832
347000.00,0.012,0,0,404.519,1955.4449,4.834
347200.00,0.003,0,0,404.37,1954.7246,4.834
347400.00,-0.022,0,0,404.235,1954.072,4.834
347600.00,0.002,0,0,404.383,1953.9785,4.832
347800.00,-0.002,0,0,565.186,2666.5474,4.718
348000.00,-0.01,0,0,404.165,1952.1169,4.83
348200.00,-0.01,0,0,404.486,1954.4762,4.832
348400.00,-0.002,0,0,358.563,1744.7676,4.866
348600.00,-0.005,0,0,358.094,1741.7692,4.864
348800.00,0.008,0,0,362.253,1760.5496,4.86
349000.00,0.009,0,0,362.154,1761.517,4.864
349200.00,0.002,0,0,362.586,1763.6183,4.864
349400.00,0.007,0,0,362.45,1762.2319,4.862
349600.00,0.005,0,0,360.439,1753.1752,4.864
349800.00,0.02,0,0,360.562,1754.4949,4.866
350000.00,-0.014,0,0,311.862,1526.8763,4.896
350200.00,0.014,0,0,364.771,1773.5166,4.862
350400.00,0,0,0,311.664,1526.5302,4.898
350600.00,0.006,0,0,403.035,1948.2712,4.834
350800.00,0.006,0,0,366.689,1782.8419,4.862
351000.00,0.024,0,0,404.232,1954.0575,4.834
351200.00,-0.006,0,0,404.091,1953.376,4.834
351400.00,-0.008,0,0,404.091,1951.7595,4.83
351600.00,0.007,0,0,404.165,1952.9252,4.832
351800.00,-0.006,0,0,404.227,1954.0333,4.834
352000.00,-0.008,0,0,403.832,1952.1239,4.834
352200.00,0,0,0,404.239,1954.0914,4.834
352400.00,0.001,0,0,404.622,1955.9429,4.834
352600.00,0.001,0,0,404.573,1954.0875,4.83
352800.00,0.002,0,0,565.113,2666.2029,4.718
353000.00,0,0,0,449.052,2155.4497,4.8
353200.00,0.002,0,0,404.333,1954.5458,4.834
353400.00,0.012,0,0,404.333,1953.7371,4.832
353600.00,-0.011,0,0,404.395,1953.2278,4.83
353800.00,0.001,0,0,404.025,1953.0569,4.834
354000.00,-0.012,0,0,404.432,1955.0244,4.834
354200.00,-0.001,0,0,404.301,1953.5823,4.832
354400.00,0,0,0,404.141,1952.8092,4.832
354600.00,0.01,0,0,404.067,1953.2599,4.834
354800.00,0.012,0,0,564.299,2663.4912,4.72
355000.00,-0.017,0,0,404.486,1955.2853,4.834
355200.00,-0.001,0,0,404.296,1954.3668,4.834
355400.00,0.007,0,0,404.765,1955.8245,4.832
355600.00,0.003,0,0,404.499,1954.5391,4.832
355800.00,0,0,0,404.523,1955.4642,4.834
356000.00,0.003,0,0,357.723,1741.3955,4.868
356200.00,0.009,0,0,429.096,2065.6682,4.814
356400.00,-0.001,0,0,362.845,1764.8781,4.864
356600.00,0.001,0,0,362.53,1761.8959,4.86
356800.00,-0.006,0,0,364.862,1773.959,4.862
357000.00,0,0,0,312.078,1527.9338,4.896
357200.00,-0.007,0,0,427.471,2057.8455,4.814
357400.00,0.001,0,0,313.016,1528.144,4.882
357600.00,0.004,0,0,311.727,1526.2153,4.896
357800.00,0.005,0,0,367.262,1784.8933,4.86
358000.00,-0.001,0,0,410.049,1979.7167,4.828
358200.00,0.012,0,0,410.123,1980.894,4.83
358400.00,-0.015,0,0,570.818,2691.9778,4.716
358600.00,0.012,0,0,404.199,1954.7064,4.836
358800.00,-0.007,0,0,445.271,2139.0818,4.804
359000.00,0.01,0,0,404.471,1956.0217,4.836
359200.00,0.015,0,0,404.224,1952.4019,4.83
359400.00,0.007,0,0,404.483,1954.4618,4.832
359600.00,0.008,0,0,404.545,1954.7615,4.832
359800.00,0,0,0,447.579,2149.2744,4.802
360000.00,0.012,0,0,447.283,2149.6421,4.806
360200.00,0.012,0,0,448.011,2151.3489,4.802
360400.00,-0.009,0,0,610.779,2860.8889,4.684
360600.00,-0.008,0,0,447.488,2148.8374,4.802
360800.00,-0.012,0,0,447.513,2149.8523,4.804
361000.00,-0.002,0,0,447.258,2147.7329,4.802
361200.00,-0.007,0,0,447.492,2149.7515,4.804
361400.00,0.015,0,0,447.381,2149.2183,4.804
361600.00,-0.004,0,0,447.242,2148.5505,4.804
361800.00,-0.008,0,0,404.289,1952.7158,4.83
362000.00,-0.019,0,0,366.239,1781.3865,4.864
362200.00,-0.002,0,0,313.392,1533.7405,4.894
362400.00,0.008,0,0,313.67,1536.3556,4.898
362600.00,0.003,0,0,313.54,1536.3461,4.9
362800.00,-0.003,0,0,363.376,1765.2805,4.858
363000.00,-0.01,0,0,313.553,1534.5284,4.894
363200.00,0.001,0,0,313.565,1535.8413,4.898
363400.00,0,0,0,312.923,1533.3228,4.9
363600.00,0,0,0,362.482,1762.3875,4.862
363800.00,-0.012,0,0,313.67,1535.7284,4.896
364000.00,0.001,0,0,314.743,1540.9818,4.896
364200.00,0.021,0,0,313.225,1534.176,4.898
364400.00,-0.012,0,0,360.285,1752.4261,4.864
364600.00,-0.012,0,0,364.975,1776.6984,4.868
364800.00,0.005,0,0,404.062,1953.2358,4.834
365000.00,0.02,0,0,404.276,1953.4615,4.832
365200.00,0,0,0,450.373,2161.7905,4.8
365400.00,0.01,0,0,404.634,1956.8101,4.836
365600.00,0.002,0,0,404.516,1954.6212,4.832
365800.00,-0.007,0,0,404.022,1952.2343,4.832
366000.00,0.002,0,0,404.799,1956.7985,4.834
366200.00,0,0,0,578.691,2722.1624,4.704
366400.00,0.015,0,0,551.663,2606.0562,4.724
366600.00,0.012,0,0,404.585,1954.1455,4.83
366800.00,0,0,0,406.523,1962.6931,4.828
367000.00,0.021,0,0,446.6,2145.4663,4.804
367200.00,-0.009,0,0,404.145,1953.637,4.834
367400.00,0.002,0,0,404.392,1954.0221,4.832
367600.00,0.006,0,0,447.755,2151.0149,4.804
367800.00,-0.001,0,0,404.463,1953.5563,4.83
368000.00,0.001,0,0,404.352,1953.8287,4.832
368200.00,-0.003,0,0,404.574,1954.9015,4.832
368400.00,0,0,0,563.637,2662.6213,4.724
368600.00,-0.013,0,0,404.702,1956.3295,4.834
368800.00,-0.027,0,0,405.418,1958.9797,4.832
369000.00,0,0,0,404.418,1953.3389,4.83
369200.00,-0.001,0,0,404.944,1957.4994,4.834
369400.00,0.01,0,0,404.327,1953.708,4.832
369600.00,-0.006,0,0,404.364,1953.0781,4.83
369800.00,0.005,0,0,397.984,1924.6506,4.836
370000.00,-0.001,0,0,565.178,2666.5098,4.718
370200.00,0.001,0,0,404.792,1957.5741,4.836
370400.00,0.009,0,0,404.619,1955.1189,4.832
370600.00,0.006,0,0,404.323,1953.6886,4.832
370800.00,0.007,0,0,404.347,1953.8046,4.832
371000.00,0.001,0,0,404.488,1954.486,4.832
371200.00,0,0,0,404.722,1954.8071,4.83
371400.00,0.02,0,0,404.377,1953.9496,4.832
371600.00,-0.005,0,0,404.599,1955.8317,4.834
371800.00,0.011,0,0,404.537,1956.3408,4.836
372000.00,0.002,0,0,404.829,1956.9435,4.834
372200.00,-0.003,0,0,565.005,2665.6936,4.718
372400.00,0.007,0,0,404.528,1955.4885,4.834
372600.00,0.009,0,0,404.824,1956.9193,4.834
372800.00,-0.002,0,0,405.676,1960.2263,4.832
373000.00,0.011,0,0,404.367,1953.0927,4.83
373200.00,0.022,0,0,404.627,1955.1576,4.832
373400.00,-0.003,0,0,404.947,1955.8939,4.83
373600.00,0.021,0,0,404.972,1956.8246,4.832
373800.00,0.016,0,0,407.07,1966.1481,4.83
374000.00,-0.006,0,0,404.577,1955.7252,4.834
374200.00,0.002,0,0,564.572,2667.0383,4.724
374400.00,-0.012,0,0,404.54,1954.7372,4.832
374600.00,-0.001,0,0,451.203,2164.8718,4.798
374800.00,-0.005,0,0,405.182,1956.2188,4.828
375000.00,0.012,0,0,370.009,1796.0237,4.854
375200.00,0.003,0,0,311.412,1525.2959,4.898
375400.00,0,0,0,429.235,2067.1958,4.816
375600.00,0.014,0,0,362.604,1762.9807,4.862
375800.00,-0.011,0,0,362.77,1764.5132,4.864
376000.00,-0.005,0,0,362.251,1761.9889,4.864
376200.00,0.016,0,0,312.195,1529.7556,4.9
376400.00,-0.018,0,0,427.092,2056.021,4.814
376600.00,0.013,0,0,362.387,1762.6503,4.864
376800.00,-0.006,0,0,363.017,1764.2627,4.86
377000.00,0.007,0,0,359.919,1751.366,4.866
377200.00,0,0,0,312.041,1528.3767,4.898
377400.00,0,0,0,405.49,1959.3275,4.832
377600.00,-0.01,0,0,563.992,2662.0422,4.72
377800.00,0.019,0,0,404.651,1956.083,4.834
378000.00,0.002,0,0,445.304,2139.2402,4.804
378200.00,-0.002,0,0,404.355,1953.8434,4.832
378400.00,-0.003,0,0,404.479,1955.2516,4.834
378600.00,-0.007,0,0,404.651,1955.2736,4.832
378800.00,0.003,0,0,404.627,1956.7762,4.836
379000.00,0.017,0,0,404.75,1956.5615,4.834
379200.00,0,0,0,404.528,1955.4885,4.834
379400.00,0.005,0,0,404.673,1956.1893,4.834
379600.00,0.012,0,0,564.649,2665.1431,4.72
379800.00,-0.008,0,0,404.118,1954.3147,4.836
380000.00,-0.004,0,0,404.796,1955.9741,4.832
380200.00,0.021,0,0,404.513,1955.4159,4.834
380400.00,-0.004,0,0,404.636,1955.201,4.832
380600.00,-0.006,0,0,404.784,1956.7258,4.834
380800.00,-0.008,0,0,404.537,1953.9136,4.83
381000.00,-0.021,0,0,405.577,1959.7479,4.832
381200.00,0.005,0,0,404.639,1954.4064,4.83
381400.00,0.012,0,0,404.775,1956.6824,4.834
381600.00,0,0,0,563.609,2656.853,4.714
381800.00,-0.007,0,0,404.516,1953.8123,4.83
382000.00,-0.005,0,0,404.644,1956.0492,4.834
382200.00,0.012,0,0,450.936,2164.4929,4.8
382400.00,0.017,0,0,358.179,1742.1825,4.864
382600.00,-0.007,0,0,362.992,1764.8671,4.862
382800.00,0.003,0,0,362.289,1762.1737,4.864
383000.00,-0.008,0,0,360.4,1752.2648,4.862
383200.00,-0.003,0,0,404.278,1953.4713,4.832
383400.00,0.014,0,0,404.471,1954.4038,4.832
383600.00,0,0,0,404.742,1955.7133,4.832
383800.00,-0.003,0,0,405.594,1959.8301,4.832
384000.00,0.006,0,0,404.624,1955.1431,4.832
384200.00,0.016,0,0,405.302,1959.23,4.834
384400.00,0.006,0,0,404.952,1957.538,4.834
384600.00,0.005,0,0,564.08,2660.2014,4.716
384800.00,0.017,0,0,404.458,1954.3411,4.832
385000.00,-0.01,0,0,404.994,1956.9309,4.832
385200.00,0.021,0,0,404.451,1955.1161,4.834
385400.00,-0.017,0,0,404.582,1954.9402,4.832
385600.00,-0.002,0,0,404.681,1956.228,4.834
385800.00,-0.002,0,0,404.796,1955.1646,4.83
386000.00,0.012,0,0,404.648,1955.2592,4.832
386200.00,0.026,0,0,445.88,2142.0076,4.804
386400.00,0.014,0,0,404.969,1957.6201,4.834
386600.00,-0.004,0,0,563.563,2662.2715,4.724
386800.00,0,0,0,451.186,2164.7903,4.798
387000.00,-0.014,0,0,314.164,1538.147,4.896
387200.00,0.024,0,0,313.559,1535.1848,4.896
387400.00,0.004,0,0,313.479,1534.7932,4.896
387600.00,0,0,0,366.275,1781.5615,4.864
387800.00,0,0,0,314.398,1539.9214,4.898
388000.00,0.004,0,0,313.559,1535.8119,4.898
388200.00,-0.002,0,0,313.905,1538.1345,4.9
388400.00,0.017,0,0,365.349,1774.8654,4.858
388600.00,0.02,0,0,314.701,1541.4054,4.898
388800.00,0.011,0,0,313.362,1534.847,4.898
389000.00,0.01,0,0,313.942,1536.4321,4.894
389200.00,0.011,0,0,361.233,1757.0372,4.864
389400.00,0.018,0,0,367.497,1786.7705,4.862
389600.00,-0.003,0,0,365.226,1775.7289,4.862
389800.00,0.031,0,0,356.71,1735.0374,4.864
390000.00,0,0,0,404.384,1953.9834,4.832
390200.00,-0.002,0,0,404.488,1954.486,4.832
390400.00,-0.022,0,0,564.574,2664.7891,4.72
390600.00,0.009,0,0,408.371,1947.9297,4.77
390800.00,-0.03,0,0,414.262,2000.8854,4.83
391000.00,0.007,0,0,404.5,1955.353,4.834
391200.00,-0.015,0,0,404.044,1952.3406,4.832
391400.00,-0.029,0,0,404.364,1954.6957,4.834
391600.00,-0.012,0,0,404.533,1956.3215,4.836
391800.00,-0.015,0,0,404.656,1956.1072,4.834
392000.00,0.02,0,0,404.779,1956.7017,4.834
392200.00,-0.001,0,0,404.212,1953.9609,4.834
392400.00,-0.025,0,0,566.105,2670.8833,4.718
392600.00,0.001,0,0,404.303,1954.4008,4.834
392800.00,-0.001,0,0,404.863,1956.298,4.832
393000.00,-0.01,0,0,404.665,1956.1508,4.834
393200.00,-0.016,0,0,404.616,1955.9138,4.834
393400.00,-0.001,0,0,404.468,1954.3893,4.832
393600.00,0.008,0,0,404.135,1953.5886,4.834
393800.00,0.004,0,0,461.852,2215.0422,4.796
394000.00,0.016,0,0,404.863,1957.1078,4.834
394200.00,-0.014,0,0,404.567,1956.486,4.836
394400.00,-0.002,0,0,609.769,2856.158,4.684
394600.00,-0.003,0,0,404.702,1955.5199,4.832
394800.00,0.023,0,0,404.562,1955.6528,4.834
395000.00,0.001,0,0,358.283,1743.405,4.866
395200.00,0.01,0,0,358.777,1746.5265,4.868
395400.00,-0.003,0,0,362.516,1762.5527,4.862
395600.00,-0.006,0,0,428.985,2066.8496,4.818
395800.00,0.013,0,0,362.324,1760.8947,4.86
396000.00,-0.004,0,0,369.889,1795.4413,4.854
396200.00,-0.037,0,0,371.024,1802.4344,4.858
396400.00,-0.003,0,0,359.752,1749.8337,4.864
396600.00,0.008,0,0,444.818,2137.7954,4.806
396800.00,-0.003,0,0,360.406,1753.7357,4.866
397000.00,0.004,0,0,367.81,1786.8209,4.858
397200.00,0.003,0,0,397.898,1925.0305,4.838
397400.00,0.004,0,0,465.473,2227.7537,4.786
397600.00,-0.001,0,0,362.585,1762.1631,4.86
397800.00,0.008,0,0,404.195,1953.8787,4.834
398000.00,0.01,0,0,404.762,1955.8098,4.832
398200.00,0,0,0,404.738,1956.5035,4.834
398400.00,0.015,0,0,404.861,1956.2882,4.832
398600.00,-0.018,0,0,404.503,1955.3676,4.834
398800.00,0.01,0,0,404.725,1955.6311,4.832
399000.00,0,0,0,405.157,1958.5291,4.834
399200.00,0.011,0,0,564.93,2666.4695,4.72
399400.00,0.032,0,0,404.713,1956.3827,4.834
399600.00,-0.015,0,0,404.762,1955.8098,4.832
399800.00,-0.009,0,0,404.483,1955.2709,4.834
400000.00,0.021,0,0,404.668,1956.1652,4.834
400200.00,0,0,0,404.306,1954.4153,4.834
400400.00,0.013,0,0,405.059,1956.4349,4.83
400600.00,-0.007,0,0,404.738,1956.5035,4.834
400800.00,0.002,0,0,404.56,1954.0248,4.83
401000.00,-0.003,0,0,404.61,1955.8848,4.834
401200.00,0.011,0,0,564.043,2660.0269,4.716
401400.00,-0.002,0,0,404.607,1955.8702,4.834
401600.00,0.013,0,0,404.553,1955.6093,4.834
401800.00,0.003,0,0,405.039,1957.1483,4.832
402000.00,0.003,0,0,404.557,1954.8193,4.832
402200.00,-0.014,0,0,404.463,1954.3652,4.832
402400.00,-0.002,0,0,404.92,1956.5734,4.832
402600.00,0.002,0,0,404.846,1957.0256,4.834
402800.00,-0.011,0,0,365.719,1778.1257,4.862
403000.00,-0.03,0,0,408.766,1972.7047,4.826
403200.00,-0.011,0,0,357.981,1742.6515,4.868
403400.00,0,0,0,368.089,1789.6487,4.862
403600.00,-0.028,0,0,404.644,1955.2397,4.832
403800.00,0,0,0,405.668,1960.9991,4.834
404000.00,0.009,0,0,563.512,2658.6497,4.718
404200.00,0.009,0,0,404.602,1955.8461,4.834
404400.00,-0.009,0,0,404.89,1957.2384,4.834
404600.00,0.003,0,0,404.57,1954.8822,4.832
404800.00,0.008,0,0,404.656,1954.4885,4.83
405000.00,0.004,0,0,404.355,1954.6522,4.834
405200.00,0.005,0,0,404.807,1955.2178,4.83
405400.00,0.016,0,0,445.856,2141.8921,4.804
405600.00,-0.002,0,0,404.906,1957.3157,4.834
405800.00,-0.005,0,0,405.589,1958.9948,4.83
406000.00,-0.001,0,0,565.757,2668.1101,4.716
406200.00,-0.003,0,0,404.429,1954.2008,4.832
406400.00,-0.006,0,0,404.866,1957.1223,4.834
406600.00,-0.002,0,0,404.668,1956.1652,4.834
406800.00,0.004,0,0,404.273,1952.6385,4.83
407000.00,0.002,0,0,404.841,1957.0015,4.834
407200.00,0.007,0,0,404.022,1953.0424,4.834
407400.00,0,0,0,404.59,1954.9788,4.832
407600.00,0.027,0,0,404.812,1956.8613,4.834
407800.00,0,0,0,406.577,1964.58,4.832
408000.00,0.008,0,0,405.12,1958.3501,4.834
408200.00,0.017,0,0,564.374,2663.8452,4.72
408400.00,-0.012,0,0,404.787,1957.5498,4.836
408600.00,-0.015,0,0,358.63,1745.0936,4.866
408800.00,0.011,0,0,405.605,1959.0721,4.83
409000.00,-0.007,0,0,406.18,1961.8494,4.83
409200.00,0,0,0,407.456,1968.8273,4.832
409400.00,-0.003,0,0,409.937,1979.9957,4.83
409600.00,0.001,0,0,405.123,1958.3645,4.834
409800.00,0,0,0,565.223,2666.7222,4.718
410000.00,-0.004,0,0,404.852,1957.0546,4.834
410200.00,0.002,0,0,405.728,1959.6661,4.83
410400.00,0.008,0,0,404.622,1955.1334,4.832
410600.00,-0.012,0,0,405.432,1959.0474,4.832
410800.00,0.003,0,0,404.914,1957.3544,4.834
411000.00,0.008,0,0,405.173,1958.6063,4.834
411200.00,-0.011,0,0,405.634,1959.2122,4.83
411400.00,0.008,0,0,447.765,2151.063,4.804
411600.00,0.002,0,0,404.309,1953.621,4.832
411800.00,-0.006,0,0,404.901,1957.2915,4.834
412000.00,0.005,0,0,612.171,2869.8579,4.688
412200.00,-0.005,0,0,404.761,1956.6146,4.834
412400.00,0,0,0,404.65,1956.0781,4.834
412600.00,-0.008,0,0,404.901,1958.1012,4.836
412800.00,0.003,0,0,404.691,1954.6576,4.83
413000.00,0,0,0,404.733,1956.4794,4.834
413200.00,0.006,0,0,404.923,1957.3978,4.834
413400.00,0.028,0,0,404.955,1956.7424,4.832
413600.00,0.021,0,0,446.349,2144.2605,4.804
413800.00,0.004,0,0,362.426,1760.6654,4.858
414000.00,-0.013,0,0,367.812,1786.8307,4.858
414200.00,-0.002,0,0,370.465,1799.7189,4.858
414400.00,0.027,0,0,311.967,1528.0144,4.898
414600.00,0.012,0,0,428.487,2062.7366,4.814
414800.00,0,0,0,362.98,1764.8088,4.862
415000.00,0.01,0,0,404.878,1956.3704,4.832
415200.00,0.006,0,0,404.594,1954.998,4.832
415400.00,-0.011,0,0,407.976,1970.5242,4.83
415600.00,0,0,0,404.796,1957.5934,4.836
415800.00,-0.003,0,0,404.833,1956.153,4.832
416000.00,0,0,0,405.001,1956.9647,4.832
416200.00,0.001,0,0,404.75,1954.9425,4.83
416400.00,0.002,0,0,609.002,2853.7834,4.686
416600.00,-0.004,0,0,404.927,1957.4171,4.834
416800.00,0.013,0,0,404.853,1955.4399,4.83
417000.00,-0.016,0,0,404.878,1955.5607,4.83
417200.00,0.017,0,0,404.631,1955.9863,4.834
417400.00,0.028,0,0,404.607,1955.8702,4.834
417600.00,0.021,0,0,405.248,1958.9688,4.834
417800.00,-0.012,0,0,405.182,1957.0291,4.83
418000.00,0.004,0,0,404.503,1954.5583,4.832
418200.00,0,0,0,404.639,1955.2156,4.832
418400.00,-0.007,0,0,568.115,2681.5027,4.72
418600.00,0.001,0,0,404.927,1956.6072,4.832
418800.00,0.018,0,0,448.587,2155.012,4.804
419000.00,0.012,0,0,447.945,2151.032,4.802
419200.00,-0.002,0,0,447.937,2150.9937,4.802
419400.00,-0.012,0,0,451.034,2164.9634,4.8
419600.00,-0.01,0,0,447.855,2150.5999,4.802
419800.00,-0.02,0,0,448.003,2152.2063,4.804
420000.00,0.006,0,0,401.092,1938.8788,4.834
420200.00,0.012,0,0,449.969,2159.8513,4.8
420400.00,-0.005,0,0,400.616,1936.5778,4.834
420600.00,-0.01,0,0,408.28,1971.9923,4.83
420800.00,0.006,0,0,312.127,1529.4224,4.9
421000.00,-0.003,0,0,359.543,1747.379,4.86
421200.00,-0.012,0,0,311.979,1528.0731,4.898
421400.00,0.005,0,0,365.652,1777.8,4.862
421600.00,0.005,0,0,362.616,1763.0389,4.862
421800.00,-0.028,0,0,312.288,1528.962,4.896
422000.00,0.009,0,0,360.284,1752.4213,4.864
422200.00,0.001,0,0,312.238,1528.7173,4.896
422400.00,0.001,0,0,363.024,1764.2966,4.86
422600.00,0.007,0,0,362.555,1763.4674,4.864
422800.00,-0.012,0,0,312.59,1530.4406,4.896
423000.00,-0.003,0,0,426.302,2053.0706,4.816
423200.00,0.016,0,0,363.232,1766.7604,4.864
423400.00,0.005,0,0,362.757,1762.999,4.86
423600.00,-0.012,0,0,362.214,1761.0845,4.862
423800.00,-0.01,0,0,358.956,1745.9619,4.864
424000.00,0.005,0,0,408.543,1973.2627,4.83
424200.00,0.015,0,0,363.658,1768.1051,4.862
424400.00,-0.002,0,0,365.243,1775.8115,4.862
424600.00,0.02,0,0,351.829,1713.4072,4.87
424800.00,-0.007,0,0,366.021,1779.5941,4.862
425000.00,0.004,0,0,369.871,1796.8333,4.858
425200.00,0,0,0,404.981,1956.868,4.832
425400.00,0.003,0,0,464.946,2230.8108,4.798
425600.00,-0.012,0,0,404.591,1956.6021,4.836
425800.00,0.001,0,0,404.463,1954.3652,4.832
426000.00,-0.004,0,0,450.816,2163.917,4.8
426200.00,-0.013,0,0,404.735,1955.6793,4.832
426400.00,-0.006,0,0,566.044,2668.3315,4.714
426600.00,0.011,0,0,451.215,2166.7344,4.802
426800.00,-0.003,0,0,405.097,1957.4286,4.832
427000.00,0.008,0,0,404.633,1955.1865,4.832
427200.00,-0.001,0,0,403.88,1952.356,4.834
427400.00,-0.009,0,0,404.398,1954.0511,4.832
427600.00,-0.002,0,0,404.826,1956.1191,4.832
427800.00,0.016,0,0,404.48,1953.6384,4.83
428000.00,-0.016,0,0,404.352,1954.6376,4.834
428200.00,0.012,0,0,404.735,1955.6793,4.832
428400.00,0.007,0,0,405.055,1956.4155,4.83
428600.00,-0.008,0,0,563.725,2660.7817,4.72
428800.00,0.01,0,0,405.097,1957.4286,4.832
429000.00,-0.001,0,0,404.517,1954.6261,4.832
429200.00,-0.024,0,0,404.604,1955.0465,4.832
429400.00,0.029,0,0,405.048,1957.1919,4.832
429600.00,0.001,0,0,404.924,1956.5928,4.832
429800.00,-0.005,0,0,404.887,1956.4138,4.832
430000.00,0.017,0,0,404.658,1956.1168,4.834
430200.00,0.031,0,0,411.334,1986.7433,4.83
430400.00,0.011,0,0,362.712,1764.2311,4.864
430600.00,-0.005,0,0,419.647,2026.0558,4.828
430800.00,-0.006,0,0,360.744,1753.9373,4.862
431000.00,0.018,0,0,370.173,1798.3004,4.858
431200.00,0.01,0,0,427.471,2058.7004,4.816
431400.00,0.018,0,0,416.315,2006.6384,4.82
431600.00,0.007,0,0,360.214,1752.0808,4.864
431800.00,-0.002,0,0,415.784,2006.5736,4.826
432000.00,-0.012,0,0,369.711,1796.0559,4.858
432200.00,-0.013,0,0,429.293,2069.1924,4.82
432400.00,0.021,0,0,408.277,1971.9779,4.83
432600.00,0.007,0,0,367.588,1786.4778,4.86
432800.00,0.001,0,0,410.498,1982.7052,4.83
433000.00,0.004,0,0,312.375,1529.3879,4.896
433200.00,-0.002,0,0,430.108,2073.1206,4.82
433400.00,-0.006,0,0,362.541,1763.3993,4.864
433600.00,0.006,0,0,407.524,1969.1558,4.832
433800.00,-0.012,0,0,370.624,1800.4913,4.858
434000.00,-0.014,0,0,312.201,1529.1604,4.898
434200.00,0.001,0,0,473.307,2265.2473,4.786
434400.00,0.003,0,0,362.801,1763.2129,4.86
434600.00,0.004,0,0,367.399,1784.8242,4.858
434800.00,0.014,0,0,405.589,1959.8059,4.832
435000.00,0.007,0,0,410.262,1982.3859,4.832
435200.00,-0.028,0,0,409.238,1974.9827,4.826
435400.00,-0.001,0,0,562.781,2656.3262,4.72
435600.00,0.001,0,0,404.355,1954.6522,4.834
435800.00,0.001,0,0,404.392,1953.2134,4.83
436000.00,0.017,0,0,404.215,1953.9753,4.834
436200.00,-0.01,0,0,404.832,1956.1482,4.832
436400.00,0,0,0,405.034,1957.9343,4.834
436600.00,-0.018,0,0,404.725,1955.6311,4.832
436800.00,0.005,0,0,404.602,1955.0367,4.832
437000.00,0.002,0,0,404.775,1956.6824,4.834
437200.00,0.005,0,0,404.762,1956.6195,4.834
437400.00,-0.007,0,0,405.154,1957.704,4.832
437600.00,0.01,0,0,565.328,2667.2175,4.718
437800.00,-0.01,0,0,405.327,1959.3507,4.834
438000.00,-0.005,0,0,404.71,1954.7493,4.83
438200.00,-0.024,0,0,404.377,1954.7585,4.834
438400.00,-0.013,0,0,404.557,1954.8193,4.832
438600.00,-0.002,0,0,405.1,1957.4431,4.832
438800.00,-0.004,0,0,404.841,1955.382,4.83
439000.00,0,0,0,408.745,1973.4209,4.828
439200.00,-0.005,0,0,404.587,1955.7737,4.834
439400.00,0.005,0,0,405.245,1958.1437,4.832
439600.00,0.011,0,0,565.453,2667.8071,4.718
439800.00,0.012,0,0,404.327,1953.708,4.832
440000.00,0.011,0,0,505.242,2411.0146,4.772
440200.00,0.01,0,0,312.869,1532.4323,4.898
440400.00,0.015,0,0,365.224,1774.9886,4.86
440600.00,0.002,0,0,359.202,1745.7218,4.86
440800.00,0.009,0,0,404.789,1955.9403,4.832
441000.00,-0.012,0,0,445.468,2139.1372,4.802
441200.00,-0.005,0,0,404.707,1955.5442,4.832
441400.00,0.007,0,0,407.639,1969.7115,4.832
441600.00,0.012,0,0,404.32,1954.4829,4.834
441800.00,-0.002,0,0,448.166,2151.1968,4.8
442000.00,0.002,0,0,404.863,1957.1078,4.834
442200.00,-0.011,0,0,405.381,1959.6118,4.834
442400.00,0.007,0,0,564.734,2665.5444,4.72
442600.00,0.005,0,0,404.841,1957.0015,4.834
442800.00,0.012,0,0,404.779,1955.0825,4.83
443000.00,-0.001,0,0,404.89,1957.2384,4.834
443200.00,-0.005,0,0,404.755,1955.7761,4.832
443400.00,-0.012,0,0,404.673,1955.3799,4.832
443600.00,-0.004,0,0,404.957,1956.7522,4.832
443800.00,0.008,0,0,445.657,2140.0449,4.802
444000.00,0.018,0,0,314.825,1541.3832,4.896
444200.00,0,0,0,368.063,1788.7861,4.86
444400.00,-0.004,0,0,316.348,1548.8397,4.896
444600.00,-0.032,0,0,313.794,1536.963,4.898
444800.00,0,0,0,314.139,1538.0245,4.896
445000.00,0.001,0,0,361.702,1757.1482,4.858
445200.00,-0.017,0,0,313.88,1536.1288,4.894
445400.00,0.011,0,0,313.899,1536.8494,4.896
445600.00,0,0,0,313.602,1535.3953,4.896
445800.00,-0.008,0,0,366.892,1784.5626,4.864
446000.00,-0.019,0,0,313.75,1536.7474,4.898
446200.00,-0.001,0,0,313.528,1534.4061,4.894
446400.00,0.023,0,0,355.852,1732.2875,4.868
446600.00,0.004,0,0,363.047,1764.4084,4.86
446800.00,0.016,0,0,362.652,1762.4888,4.86
447000.00,0.018,0,0,368.78,1790.0581,4.854
447200.00,0.012,0,0,312.405,1530.7845,4.9
447400.00,0.007,0,0,362.96,1763.9856,4.86
447600.00,-0.002,0,0,471.586,2260.7834,4.794
447800.00,-0.006,0,0,362.368,1761.8333,4.862
448000.00,0.001,0,0,367.983,1786.9254,4.856
448200.00,-0.006,0,0,451.593,2169.4526,4.804
448400.00,-0.005,0,0,406.586,1963.8103,4.83
448600.00,-0.004,0,0,444.571,2141.9431,4.818
448800.00,0.001,0,0,650.691,2993.1785,4.6
449000.00,-0.01,0,0,355.956,1731.3699,4.864
449200.00,0.005,0,0,356.314,1735.2491,4.87
449400.00,-0.002,0,0,356.413,1733.5928,4.864
449600.00,-0.01,0,0,410.293,1983.3564,4.834
449800.00,0.012,0,0,356.067,1734.0461,4.87
450000.00,0.008,0,0,356.413,1734.3057,4.866
450200.00,-0.014,0,0,356.647,1735.4443,4.866
450400.00,-0.034,0,0,412.63,1992.1777,4.828
450600.00,0.012,0,0,356.209,1734.0255,4.868
450800.00,-0.013,0,0,313.825,1537.1149,4.898
451000.00,0,0,0,313.825,1535.8596,4.894
451200.00,-0.002,0,0,365.52,1775.696,4.858
451400.00,-0.012,0,0,313.701,1535.88,4.896
451600.00,0.006,0,0,313.652,1535.6403,4.896
451800.00,0.011,0,0,313.948,1536.4615,4.894
452000.00,-0.012,0,0,403.508,1949.7505,4.832
452200.00,0.011,0,0,404.89,1955.6188,4.83
452400.00,-0.002,0,0,404.713,1954.7638,4.83
452600.00,0.004,0,0,404.713,1956.3827,4.834
452800.00,0.003,0,0,404.713,1956.3827,4.834
453000.00,-0.004,0,0,404.367,1953.0927,4.83
453200.00,0.002,0,0,360.259,1752.2997,4.864
453400.00,0.014,0,0,313.83,1536.5116,4.896
453600.00,0.013,0,0,564.597,2662.6394,4.716
453800.00,0.002,0,0,404.807,1955.2178,4.83
454000.00,-0.005,0,0,405.733,1960.5018,4.832
454200.00,-0.013,0,0,404.659,1955.3121,4.832
454400.00,0.009,0,0,405.486,1959.3082,4.832
454600.00,0,0,0,405.116,1956.7102,4.83
454800.00,0.009,0,0,404.412,1954.1187,4.832
455000.00,0.001,0,0,404.795,1955.1599,4.83
455200.00,-0.011,0,0,448.719,2154.7485,4.802
455400.00,-0.004,0,0,404.568,1954.0634,4.83
455600.00,-0.015,0,0,564.976,2666.6868,4.72
455800.00,-0.015,0,0,404.795,1956.7792,4.834
456000.00,0.013,0,0,404.671,1956.1796,4.834
456200.00,0.004,0,0,405.387,1958.0192,4.83
456400.00,-0.006,0,0,404.38,1953.1554,4.83
456600.00,0.01,0,0,404.725,1955.6311,4.832
456800.00,0.005,0,0,404.94,1957.48,4.834
457000.00,-0.012,0,0,404.927,1956.6072,4.832
457200.00,0.014,0,0,404.631,1954.3678,4.83
457400.00,-0.009,0,0,404.685,1954.6285,4.83
457600.00,0.014,0,0,565.032,2664.6909,4.716
457800.00,0.007,0,0,404.434,1953.4161,4.83
458000.00,-0.01,0,0,404.977,1957.6588,4.834
458200.00,-0.017,0,0,404.977,1956.8488,4.832
458400.00,-0.005,0,0,404.241,1953.2924,4.832
458600.00,0,0,0,358.747,1745.663,4.866
458800.00,-0.019,0,0,358.062,1741.6135,4.864
459000.00,0.006,0,0,428.038,2060.575,4.814
459200.00,-0.005,0,0,368.207,1788.7495,4.858
459400.00,0.006,0,0,312.362,1529.949,4.898
459600.00,-0.003,0,0,362.604,1762.9807,4.862
459800.00,-0.012,0,0,377.648,1834.614,4.858
460000.00,-0.008,0,0,429.927,2071.3882,4.818
460200.00,0,0,0,351.929,1713.1903,4.868
460400.00,0,0,0,360.025,1751.1615,4.864
460600.00,-0.009,0,0,360.271,1751.6376,4.862
460800.00,0.009,0,0,360.229,1752.8744,4.866
461000.00,-0.014,0,0,416.1,2007.2664,4.824
461200.00,-0.009,0,0,365.486,1776.9929,4.862
461400.00,0.015,0,0,404.363,1953.882,4.832
461600.00,0.005,0,0,404.688,1954.6429,4.83
461800.00,0.009,0,0,404.59,1955.7881,4.834
462000.00,0.021,0,0,405.35,1958.6511,4.832
462200.00,-0.003,0,0,404.4,1953.252,4.83
462400.00,-0.012,0,0,564.459,2661.9885,4.716
462600.00,-0.007,0,0,404.622,1955.1334,4.832
462800.00,0.008,0,0,407.848,1967.4586,4.824
463000.00,0.005,0,0,445.156,2137.6392,4.802
463200.00,-0.003,0,0,405.071,1957.3031,4.832
463400.00,-0.019,0,0,404.651,1955.2736,4.832
463600.00,0,0,0,404.89,1956.4285,4.832
463800.00,-0.004,0,0,404.631,1954.3678,4.83
464000.00,-0.016,0,0,405.33,1958.5544,4.832
464200.00,-0.011,0,0,405.528,1958.7003,4.83
464400.00,-0.012,0,0,404.984,1957.6927,4.834
464600.00,-0.001,0,0,564.955,2666.5876,4.72
464800.00,-0.012,0,0,405.029,1956.29,4.83
465000.00,0.005,0,0,405.079,1957.3417,4.832
465200.00,0.001,0,0,405.935,1961.4778,4.832
465400.00,0,0,0,404.812,1955.2419,4.83
465600.00,-0.003,0,0,405.453,1959.1488,4.832
465800.00,-0.008,0,0,403.997,1951.3055,4.83
466000.00,-0.007,0,0,405.096,1957.4238,4.832
466200.00,-0.012,0,0,406.387,1964.4747,4.834
466400.00,0.009,0,0,407.103,1964.6792,4.826
466600.00,0.002,0,0,404.424,1954.1768,4.832
466800.00,0.008,0,0,404.499,1955.3481,4.834
467000.00,0.009,0,0,404.671,1956.1796,4.834
467200.00,-0.006,0,0,404.536,1954.7179,4.832
467400.00,0.012,0,0,405.436,1958.2559,4.83
467600.00,-0.012,0,0,404.943,1955.8746,4.83
467800.00,-0.016,0,0,404.58,1954.1213,4.83
468000.00,0.005,0,0,405.148,1957.675,4.832
468200.00,0.018,0,0,407.37,1967.597,4.83
468400.00,0.002,0,0,560.261,2645.5525,4.722
468600.00,0.007,0,0,404.741,1954.8989,4.83
468800.00,-0.007,0,0,404.259,1953.3794,4.832
469000.00,0.011,0,0,405.469,1958.4152,4.83
469200.00,0.006,0,0,404.753,1954.9569,4.83
469400.00,0.009,0,0,404.716,1954.7783,4.83
469600.00,-0.009,0,0,404.333,1952.9283,4.83
469800.00,0.005,0,0,451.092,2164.3394,4.798
470000.00,-0.007,0,0,404.984,1956.8827,4.832
470200.00,0.003,0,0,405.708,1960.381,4.832
470400.00,-0.005,0,0,565.076,2668.2888,4.722
470600.00,0,0,0,404.708,1956.3585,4.834
470800.00,-0.005,0,0,405.762,1959.8304,4.83
471000.00,0.003,0,0,405.194,1957.087,4.83
471200.00,0.01,0,0,448.821,2154.3411,4.8
471400.00,-0.003,0,0,405.022,1957.0663,4.832
471600.00,-0.002,0,0,358.223,1742.3966,4.864
471800.00,0.019,0,0,362.851,1762.7301,4.858
472000.00,0,0,0,435.036,2094.2634,4.814
472200.00,-0.007,0,0,358.124,1742.6315,4.866
472400.00,-0.005,0,0,357.964,1741.8528,4.866
472600.00,-0.008,0,0,362.962,1763.9954,4.86
472800.00,-0.012,0,0,364.127,1769.6573,4.86
473000.00,0.01,0,0,364.029,1769.1809,4.86
473200.00,-0.011,0,0,312.356,1529.2949,4.896
473400.00,0.009,0,0,363.01,1764.9547,4.862
473600.00,0.019,0,0,360.813,1754.9943,4.864
473800.00,0.012,0,0,377.992,1837.0411,4.86
474000.00,-0.012,0,0,443.498,2133.2253,4.81
474200.00,-0.008,0,0,312.807,1532.1287,4.898
474400.00,0.011,0,0,367.909,1787.3019,4.858
474600.00,-0.01,0,0,312.325,1529.1432,4.896
474800.00,0.004,0,0,359.975,1748.7585,4.858
475000.00,-0.012,0,0,312.3,1528.3961,4.894
475200.00,0.032,0,0,362.771,1763.0671,4.86
475400.00,0.006,0,0,362.413,1761.3271,4.86
475600.00,0.001,0,0,360.13,1752.3927,4.866
475800.00,0.019,0,0,416.124,2007.3821,4.824
476000.00,0,0,0,367.56,1784.8713,4.856
476200.00,-0.012,0,0,312.51,1529.424,4.894
476400.00,0.007,0,0,362.646,1763.91,4.864
476600.00,-0.01,0,0,360.696,1752.9827,4.86
476800.00,-0.015,0,0,465.461,2231.4202,4.794
477000.00,0,0,0,360.055,1751.3074,4.864
477200.00,-0.003,0,0,360.234,1752.1782,4.864
477400.00,0.008,0,0,413.29,1993.7109,4.824
477600.00,-0.015,0,0,312.436,1529.0618,4.894
477800.00,-0.016,0,0,426.138,2050.5759,4.812
478000.00,0.001,0,0,367.38,1783.9973,4.856
478200.00,-0.011,0,0,353.91,1722.1261,4.866
478400.00,-0.006,0,0,418.835,2019.6223,4.822
478600.00,0.011,0,0,407.584,1969.4459,4.832
478800.00,-0.003,0,0,354.292,1723.9849,4.866
479000.00,-0.02,0,0,407.263,1967.8948,4.832
479200.00,0.005,0,0,354.089,1723.7052,4.868
479400.00,-0.011,0,0,445.876,2141.9883,4.804
479600.00,0.007,0,0,452.335,2168.4939,4.794
479800.00,0.002,0,0,400.278,1934.1433,4.832
480000.00,-0.004,0,0,400.5,1936.0171,4.834
480200.00,0.016,0,0,362.826,1764.0599,4.862
480400.00,0.013,0,0,362.838,1764.1184,4.862
480600.00,0.024,0,0,361.888,1758.0519,4.858
480800.00,-0.01,0,0,312.251,1528.1565,4.894
481000.00,0,0,0,362.789,1763.1545,4.86
481200.00,0.022,0,0,359.316,1747.713,4.864
481400.00,0.016,0,0,360.217,1752.0955,4.864
481600.00,0.004,0,0,362.939,1763.8835,4.86
481800.00,-0.013,0,0,313.768,1536.8356,4.898
482000.00,-0.01,0,0,362.359,1761.0648,4.86
482200.00,0.002,0,0,362.364,1761.8138,4.862
482400.00,0.013,0,0,359.994,1750.2908,4.862
482600.00,0.004,0,0,366.042,1778.9641,4.86
482800.00,-0.005,0,0,365.672,1777.8972,4.862
483000.00,-0.012,0,0,365.067,1774.2256,4.86
483200.00,-0.005,0,0,315.003,1540.9948,4.892
483400.00,-0.007,0,0,362.641,1762.4353,4.86
483600.00,0.008,0,0,359.439,1749.0303,4.866
483800.00,-0.022,0,0,366.301,1779.4901,4.858
484000.00,-0.006,0,0,365.215,1774.2144,4.858
484200.00,0,0,0,364.986,1773.1019,4.858
484400.00,0,0,0,360.666,1754.2793,4.864
484600.00,0,0,0,420.074,2024.7568,4.82
484800.00,0.006,0,0,360.648,1753.4706,4.862
485000.00,0.017,0,0,360.031,1751.1908,4.864
485200.00,0.003,0,0,359.804,1750.0865,4.864
485400.00,-0.011,0,0,360.359,1752.0656,4.862
485600.00,-0.012,0,0,365.222,1776.4397,4.864
485800.00,0.002,0,0,312.744,1530.5691,4.894
486000.00,-0.012,0,0,312.324,1529.7629,4.898
486200.00,0,0,0,367.073,1782.5065,4.856
486400.00,-0.005,0,0,367.659,1786.8228,4.86
486600.00,0,0,0,416.462,2008.1798,4.822
486800.00,0.003,0,0,370.194,1797.662,4.856
487000.00,-0.011,0,0,365.183,1774.7896,4.86
487200.00,0.002,0,0,404.807,1956.0273,4.832
487400.00,0.027,0,0,404.77,1956.6582,4.834
487600.00,0.005,0,0,445.711,2140.3042,4.802
487800.00,0,0,0,404.856,1955.4543,4.83
488000.00,0.008,0,0,405.153,1958.5098,4.834
488200.00,0.008,0,0,564.507,2663.344,4.718
488400.00,-0.016,0,0,405.395,1958.0577,4.83
488600.00,0,0,0,405.049,1958.007,4.834
488800.00,0,0,0,405.345,1957.0057,4.828
489000.00,-0.015,0,0,404.58,1954.1213,4.83
489200.00,-0.006,0,0,405.296,1957.5796,4.83
489400.00,-0.001,0,0,404.58,1954.1213,4.83
489600.00,-0.012,0,0,405.005,1956.1742,4.83
489800.00,-0.003,0,0,404.819,1954.4662,4.828
490000.00,0.005,0,0,404.873,1957.156,4.834
490200.00,0.003,0,0,564.905,2662.9624,4.714
490400.00,0,0,0,445.625,2139,4.8
490600.00,0.005,0,0,404.639,1954.4064,4.83
490800.00,-0.006,0,0,515.169,2462.5081,4.78
491000.00,0.011,0,0,405.285,1959.1477,4.834
491200.00,-0.021,0,0,404.705,1956.344,4.834
491400.00,0.005,0,0,405.878,1962.0143,4.834
491600.00,-0.012,0,0,404.636,1955.201,4.832
491800.00,-0.001,0,0,405.001,1957.7749,4.834
492000.00,-0.017,0,0,460.537,2206.8931,4.792
492200.00,-0.013,0,0,407.643,1967.2853,4.826
492400.00,-0.007,0,0,358.265,1743.3176,4.866
492600.00,0.004,0,0,368.293,1790.6405,4.862
492800.00,-0.003,0,0,312.307,1528.4305,4.894
493000.00,-0.012,0,0,427.783,2059.3474,4.814
493200.00,-0.016,0,0,362.56,1762.0416,4.86
493400.00,-0.013,0,0,362.999,1764.9011,4.862
493600.00,-0.016,0,0,372.835,1798.5559,4.824
493800.00,-0.008,0,0,315.805,1545.5497,4.894
494000.00,0.005,0,0,359.908,1750.5924,4.864
494200.00,-0.01,0,0,312.146,1527.6426,4.894
494400.00,0.003,0,0,362.648,1762.4694,4.86
494600.00,0.004,0,0,362.45,1762.9568,4.864
494800.00,0.006,0,0,312.244,1528.7466,4.896
495000.00,-0.006,0,0,361.821,1759.1738,4.862
495200.00,0.004,0,0,403.955,1952.7185,4.834
495400.00,0.001,0,0,404.227,1953.2247,4.832
495600.00,0.009,0,0,405.73,1959.6759,4.83
495800.00,0.005,0,0,404.964,1955.9761,4.83
496000.00,-0.013,0,0,404.804,1955.2032,4.83
496200.00,-0.018,0,0,404.335,1952.938,4.83
496400.00,0.001,0,0,405.248,1958.9688,4.834
496600.00,0.025,0,0,407.411,1968.6099,4.832
496800.00,-0.015,0,0,565.335,2670.6426,4.724
497000.00,0.024,0,0,404.992,1956.1113,4.83
497200.00,0.011,0,0,404.856,1955.4543,4.83
497400.00,-0.027,0,0,404.77,1956.6582,4.834
497600.00,-0.008,0,0,404.565,1954.858,4.832
497800.00,0,0,0,406.527,1964.3384,4.832
498000.00,-0.019,0,0,405.429,1959.0327,4.832
498200.00,0.011,0,0,404.343,1953.7853,4.832
498400.00,-0.009,0,0,405.342,1957.8019,4.83
498600.00,-0.001,0,0,445.144,2137.5815,4.802
498800.00,0.015,0,0,564.523,2666.8066,4.724
499000.00,0.001,0,0,410.197,1980.4312,4.828
499200.00,-0.009,0,0,405.335,1958.5786,4.832
499400.00,-0.014,0,0,405.088,1956.5751,4.83
499600.00,-0.002,0,0,404.372,1954.7344,4.834
499800.00,-0.005,0,0,405.125,1958.3743,4.834
500000.00,-0.017,0,0,404.915,1955.7395,4.83
500200.00,-0.004,0,0,358.537,1744.641,4.866
500400.00,0.002,0,0,359.919,1748.4865,4.858
500600.00,0,0,0,312.263,1528.2151,4.894
500800.00,-0.016,0,0,362.745,1763.6661,4.862
501000.00,-0.01,0,0,362.819,1764.026,4.862
501200.00,0.001,0,0,362.74,1763.6418,4.862
501400.00,0.001,0,0,419.671,2021.9747,4.818
501600.00,-0.016,0,0,360.518,1753.5596,4.864
501800.00,0.012,0,0,370.367,1797.7615,4.854
502000.00,0,0,0,312.646,1530.0895,4.894
502200.00,-0.003,0,0,363.875,1767.7047,4.858
502400.00,-0.005,0,0,429.544,2069.543,4.818
502600.00,-0.01,0,0,363.11,1764.7146,4.86
502800.00,-0.009,0,0,363.122,1764.7731,4.86
503000.00,0,0,0,363.364,1766.6758,4.862
503200.00,-0.013,0,0,360.5,1752.751,4.862
503400.00,0.011,0,0,418.893,2018.2264,4.818
503600.00,-0.011,0,0,360.432,1752.4204,4.862
503800.00,-0.025,0,0,367.639,1785.9902,4.858
504000.00,0.009,0,0,312.047,1528.4061,4.898
504200.00,0.017,0,0,362.821,1762.5845,4.858
504400.00,-0.005,0,0,427.915,2059.9829,4.814
504600.00,-0.015,0,0,362.814,1764.0016,4.862
504800.00,0,0,0,366.232,1779.1549,4.858
505000.00,0.006,0,0,312.133,1529.4517,4.9
505200.00,0.005,0,0,365.215,1774.2144,4.858
505400.00,0.001,0,0,430.231,2073.7134,4.82
505600.00,-0.015,0,0,362.87,1764.2739,4.862
505800.00,0.015,0,0,365.326,1774.0229,4.856
506000.00,0.006,0,0,366.197,1780.4497,4.862
506200.00,0,0,0,312.398,1529.5006,4.896
506400.00,0,0,0,428.861,2065.3945,4.816
506600.00,-0.006,0,0,408.226,1971.7316,4.83
506800.00,0.018,0,0,402.635,1946.3376,4.834
507000.00,0.004,0,0,358.18,1742.1874,4.864
507200.00,0.004,0,0,357.477,1738.0531,4.862
507400.00,-0.004,0,0,427.853,2058.8286,4.812
507600.00,0.012,0,0,362.402,1762.7233,4.864
507800.00,-0.011,0,0,362.729,1762.863,4.86
508000.00,-0.007,0,0,362.704,1762.7416,4.86
508200.00,0.011,0,0,362.581,1763.5939,4.864
508400.00,0.01,0,0,359.224,1747.2655,4.864
508600.00,-0.007,0,0,369.727,1796.8732,4.86
508800.00,0.025,0,0,312.201,1528.536,4.896
509000.00,-0.004,0,0,361.92,1759.6552,4.862
509200.00,0.007,0,0,360.167,1750.4116,4.86
509400.00,-0.004,0,0,416.869,2010.1422,4.822
509600.00,-0.005,0,0,360.296,1752.4796,4.864
509800.00,0.019,0,0,360,1751.0399,4.864
510000.00,0,0,0,368.152,1788.4824,4.858
510200.00,-0.003,0,0,367.449,1784.3324,4.856
510400.00,0.013,0,0,361.586,1758.0311,4.862
510600.00,-0.001,0,0,369.892,1796.1956,4.856
510800.00,0.025,0,0,312.281,1529.5522,4.898
511000.00,-0.015,0,0,405.284,1959.1429,4.834
511200.00,0.012,0,0,354.238,1723.0135,4.864
511400.00,0.008,0,0,611.21,2866.575,4.69
511600.00,-0.008,0,0,447.793,2150.302,4.802
511800.00,0.007,0,0,493.026,2319.1943,4.704
512000.00,0.012,0,0,370.51,1797.7146,4.852
512200.00,0.003,0,0,370.238,1798.6162,4.858
512400.00,0.008,0,0,409.6,1975.9104,4.824
512600.00,0.005,0,0,356.038,1733.193,4.868
512800.00,0.012,0,0,356.149,1732.3086,4.864
513000.00,-0.004,0,0,369.848,1796.7214,4.858
513200.00,0.014,0,0,408.107,1971.1567,4.83
513400.00,0.026,0,0,359.21,1747.1974,4.864
513600.00,0.004,0,0,356.174,1732.4303,4.864
513800.00,0.006,0,0,355.853,1731.5807,4.866
514000.00,0.003,0,0,408.954,1974.4299,4.828
514200.00,-0.012,0,0,355.65,1729.8815,4.864
514400.00,0.011,0,0,356.403,1734.9698,4.868
514600.00,0.018,0,0,358.871,1744.8308,4.862
514800.00,0.014,0,0,404.585,1955.7639,4.834
515000.00,-0.009,0,0,396.716,1920.1055,4.84
515200.00,0.01,0,0,404.651,1955.2736,4.832
515400.00,0.004,0,0,404.849,1955.4207,4.83
515600.00,-0.004,0,0,404.523,1954.6552,4.832
515800.00,-0.007,0,0,404.573,1954.8966,4.832
516000.00,-0.01,0,0,406.658,1964.1581,4.83
516200.00,-0.006,0,0,565.275,2668.0979,4.72
516400.00,-0.005,0,0,365.61,1777.5957,4.862
516600.00,-0.002,0,0,404.881,1956.385,4.832
516800.00,0,0,0,404.523,1954.6552,4.832
517000.00,-0.003,0,0,405.14,1958.4469,4.834
517200.00,-0.003,0,0,405.037,1956.3286,4.83
517400.00,-0.008,0,0,413.639,1995.3945,4.824
517600.00,-0.005,0,0,564.717,2664.3347,4.718
517800.00,0.004,0,0,445.39,2138.7629,4.802
518000.00,-0.006,0,0,404.553,1955.6093,4.834
518200.00,0.015,0,0,405.083,1957.361,4.832
518400.00,-0.014,0,0,404.639,1954.4064,4.83
518600.00,-0.001,0,0,404.775,1956.6824,4.834
518800.00,0.009,0,0,404.384,1953.1747,4.83
519000.00,-0.008,0,0,404.644,1955.2397,4.832
519200.00,0.011,0,0,404.446,1955.092,4.834
519400.00,0.002,0,0,404.775,1954.2537,4.828
519600.00,0,0,0,565.917,2667.7329,4.714
519800.00,-0.038,0,0,405.261,1959.0316,4.834
520000.00,0.01,0,0,404.52,1953.8315,4.83
520200.00,0.006,0,0,404.619,1955.1189,4.832
520400.00,0.013,0,0,406.273,1963.9238,4.834
520600.00,0.014,0,0,404.981,1956.868,4.832
520800.00,0,0,0,404.142,1952.0059,4.83
521000.00,0.001,0,0,405.315,1959.2927,4.834
521200.00,0.003,0,0,447.492,2149.7515,4.804
521400.00,-0.004,0,0,404.821,1955.2855,4.83
521600.00,-0.03,0,0,408.82,1972.9655,4.826
521800.00,0.023,0,0,375.055,1822.0171,4.858
522000.00,0.012,0,0,362.997,1764.8915,4.862
522200.00,0.017,0,0,358.387,1742.4775,4.862
522400.00,-0.003,0,0,358.677,1746.0397,4.868
522600.00,-0.002,0,0,564.27,2663.3545,4.72
522800.00,0.012,0,0,404.969,1956.0002,4.83
523000.00,0.001,0,0,405.631,1960.0089,4.832
523200.00,-0.007,0,0,404.52,1955.4497,4.834
523400.00,0.004,0,0,404.503,1955.3676,4.834
523600.00,0.015,0,0,405.281,1959.1284,4.834
523800.00,0.003,0,0,404.627,1955.1576,4.832
524000.00,0.015,0,0,404.133,1952.7705,4.832
524200.00,0.002,0,0,405.367,1957.9226,4.83
524400.00,0.006,0,0,405.005,1956.1742,4.83
524600.00,0,0,0,565.385,2667.4863,4.718
524800.00,0.001,0,0,405.412,1958.9507,4.832
525000.00,0.003,0,0,404.301,1953.5823,4.832
525200.00,-0.005,0,0,405.264,1958.2356,4.832
525400.00,-0.008,0,0,405.333,1957.7584,4.83
525600.00,-0.009,0,0,404.543,1953.9426,4.83
525800.00,0.016,0,0,405.136,1957.6169,4.832
526000.00,-0.004,0,0,445.987,2141.6296,4.802
526200.00,-0.011,0,0,404.679,1956.2183,4.834
526400.00,0.01,0,0,406.283,1962.3468,4.83
526600.00,0.012,0,0,405.716,1960.4197,4.832
526800.00,0.006,0,0,564.769,2665.7095,4.72
527000.00,0.003,0,0,404.688,1955.4523,4.832
527200.00,0.003,0,0,405.49,1958.5166,4.83
527400.00,0.004,0,0,404.679,1955.4088,4.832
527600.00,-0.007,0,0,358.347,1741.5664,4.86
527800.00,-0.007,0,0,358.915,1745.0448,4.862
528000.00,0.01,0,0,429.367,2066.9729,4.814
528200.00,0,0,0,367.523,1784.6918,4.856
528400.00,0.012,0,0,365.097,1773.6411,4.858
528600.00,-0.007,0,0,360.308,1752.5381,4.864
528800.00,0.002,0,0,365.061,1774.1965,4.86
529000.00,0.012,0,0,429.326,2066.7754,4.814
529200.00,0.005,0,0,365.511,1776.3834,4.86
529400.00,-0.001,0,0,312.602,1531.1245,4.898
529600.00,-0.006,0,0,362.808,1764.6981,4.864
529800.00,-0.012,0,0,363.924,1767.9427,4.858
530000.00,0.008,0,0,420.51,2027.6992,4.822
530200.00,0.012,0,0,368.096,1788.2103,4.858
530400.00,0.001,0,0,312.436,1529.6866,4.896
530600.00,-0.022,0,0,363.27,1765.4922,4.86
530800.00,0.012,0,0,362.844,1763.4219,4.86
531000.00,0.016,0,0,418.429,2016.8278,4.82
531200.00,0.002,0,0,367.405,1784.8534,4.858
531400.00,0.006,0,0,312.238,1529.3417,4.898
531600.00,0.001,0,0,363.061,1765.2026,4.862
531800.00,-0.006,0,0,363.154,1764.9285,4.86
532000.00,-0.018,0,0,415.729,2003.8138,4.82
532200.00,0.003,0,0,365.171,1774.0006,4.858
532400.00,-0.001,0,0,312.769,1530.066,4.892
532600.00,-0.01,0,0,366.208,1780.5033,4.862
532800.00,-0.002,0,0,365.473,1776.1987,4.86
533000.00,-0.002,0,0,419.268,2020.8718,4.82
533200.00,-0.006,0,0,365.411,1775.8976,4.86
533400.00,0.013,0,0,363.658,1767.3779,4.86
533600.00,0,0,0,312.356,1529.2949,4.896
533800.00,-0.005,0,0,365.3,1773.8967,4.856
534000.00,-0.002,0,0,436.891,2099.6982,4.806
534200.00,0.002,0,0,403.155,1949.6576,4.836
534400.00,0,0,0,358.036,1741.4871,4.864
534600.00,0,0,0,371.389,1803.465,4.856
534800.00,0.004,0,0,311.998,1528.166,4.898
535000.00,0.007,0,0,428.857,2066.2329,4.818
535200.00,0.013,0,0,362.609,1763.005,4.862
535400.00,0.003,0,0,365.3,1774.6273,4.858
535600.00,-0.01,0,0,367.682,1786.1991,4.858
535800.00,0.01,0,0,354.001,1723.9849,4.87
536000.00,0.012,0,0,564.279,2661.1396,4.716
536200.00,0.012,0,0,404.192,1952.2473,4.83
536400.00,-0.011,0,0,404.907,1955.7008,4.83
536600.00,-0.004,0,0,404.673,1955.3799,4.832
536800.00,0,0,0,404.579,1954.1166,4.83
537000.00,0,0,0,445.645,2140.8784,4.804
537200.00,0.007,0,0,407.191,1967.5469,4.832
537400.00,0,0,0,357.506,1738.1942,4.862
537600.00,0.008,0,0,373.734,1815.5997,4.858
537800.00,-0.001,0,0,419.153,2019.4791,4.818
538000.00,-0.006,0,0,355.561,1731.582,4.87
538200.00,0.016,0,0,355.487,1730.5107,4.868
538400.00,-0.013,0,0,356.03,1733.1541,4.868
538600.00,0.032,0,0,406.418,1963.8116,4.832
538800.00,-0.008,0,0,356.074,1733.3683,4.868
539000.00,-0.02,0,0,358.246,1743.9415,4.868
539200.00,0,0,0,356.222,1734.0886,4.868
539400.00,0.019,0,0,361.146,1754.4471,4.858
539600.00,-0.012,0,0,314.004,1536.7356,4.894
539800.00,0.004,0,0,313.88,1536.7565,4.896
540000.00,-0.001,0,0,314.09,1536.5283,4.892
540200.00,0,0,0,360.973,1755.0507,4.862
540400.00,-0.015,0,0,314.849,1541.5006,4.896
540600.00,0,0,0,314.886,1541.052,4.894
540800.00,-0.008,0,0,405.105,1957.4673,4.832
541000.00,-0.004,0,0,362.849,1763.4462,4.86
541200.00,0.011,0,0,429.449,2069.0852,4.818
541400.00,0.003,0,0,362.523,1761.8619,4.86
541600.00,-0.001,0,0,360.018,1750.4076,4.862
541800.00,0.013,0,0,360.481,1753.3795,4.864
542000.00,0.001,0,0,360.148,1751.7599,4.864
542200.00,0.002,0,0,520.659,2475.2129,4.754
542400.00,0.008,0,0,360.13,1750.952,4.862
542600.00,-0.017,0,0,361.112,1757.171,4.866
542800.00,0.002,0,0,403.334,1949.7167,4.834
543000.00,-0.006,0,0,360.532,1753.6277,4.864
543200.00,0.013,0,0,428.363,2061.2827,4.812
543400.00,-0.008,0,0,364.765,1773.4875,4.862
543600.00,-0.02,0,0,366.066,1778.3486,4.858
543800.00,-0.021,0,0,369.855,1796.0159,4.856
544000.00,0.002,0,0,312.491,1529.9559,4.896
544200.00,-0.008,0,0,362.359,1761.7896,4.862
544400.00,-0.002,0,0,404.358,1953.8578,4.832
544600.00,-0.011,0,0,405.531,1957.0928,4.826
544800.00,0.004,0,0,404.519,1953.8268,4.83
545000.00,-0.005,0,0,404.573,1954.0875,4.83
545200.00,0.002,0,0,446.045,2142.8003,4.804
545400.00,0.005,0,0,404.856,1956.264,4.832
545600.00,-0.004,0,0,405.133,1957.6025,4.832
545800.00,0.002,0,0,404.762,1955.0004,4.83
546000.00,0.004,0,0,565.683,2667.761,4.716
546200.00,-0.012,0,0,404.232,1952.4406,4.83
546400.00,0,0,0,404.96,1955.9568,4.83
546600.00,0.017,0,0,404.639,1954.4064,4.83
546800.00,0,0,0,404.713,1955.5732,4.832
547000.00,-0.003,0,0,405.034,1957.1241,4.832
547200.00,0.014,0,0,405.076,1958.1373,4.834
547400.00,0.006,0,0,404.668,1955.3557,4.832
547600.00,-0.007,0,0,407.548,1967.6418,4.828
547800.00,-0.009,0,0,410.276,1980.8125,4.828
548000.00,0,0,0,568.907,2684.103,4.718
548200.00,-0.012,0,0,404.644,1955.2397,4.832
548400.00,0.006,0,0,405.108,1957.4818,4.832
548600.00,-0.013,0,0,405.285,1957.5265,4.83
548800.00,-0.016,0,0,404.619,1955.1189,4.832
549000.00,-0.012,0,0,404.545,1953.9524,4.83
549200.00,0.014,0,0,404.175,1953.782,4.834
549400.00,0.001,0,0,358.29,1742.006,4.862
549600.00,0,0,0,430.63,2073.9141,4.816
549800.00,0.006,0,0,436.924,2106.8477,4.822
550000.00,-0.007,0,0,365.541,1775.798,4.858
550200.00,-0.008,0,0,357.896,1741.522,4.866
550400.00,-0.005,0,0,400.023,1934.5112,4.836
550600.00,0.009,0,0,426.578,2052.6934,4.812
550800.00,-0.015,0,0,363.573,1766.9648,4.86
551000.00,-0.018,0,0,358.489,1743.6906,4.864
551200.00,0.007,0,0,367.615,1785.8735,4.858
551400.00,0.003,0,0,358.075,1740.9607,4.862
551600.00,0.01,0,0,429.964,2070.7065,4.816
551800.00,0.014,0,0,358.198,1741.5587,4.862
552000.00,-0.011,0,0,360.259,1752.2997,4.864
552200.00,0.019,0,0,360.71,1755.2148,4.866
552400.00,0.002,0,0,360.463,1754.0131,4.866
552600.00,0.006,0,0,417.218,2010.9907,4.82
552800.00,-0.003,0,0,360.223,1751.4042,4.862
553000.00,0.001,0,0,360.334,1752.6646,4.864
553200.00,-0.024,0,0,360.526,1752.8774,4.862
553400.00,-0.01,0,0,400.236,1934.7408,4.834
553600.00,0.011,0,0,360.112,1750.1444,4.86
553800.00,0.016,0,0,367.949,1788.2322,4.86
554000.00,0.009,0,0,358.212,1742.3431,4.864
554200.00,-0.001,0,0,358.192,1742.2457,4.864
554400.00,0.006,0,0,362.808,1762.5212,4.858
554600.00,-0.009,0,0,429.421,2068.9502,4.818
554800.00,0.004,0,0,362.801,1763.2129,4.86
555000.00,0.021,0,0,360.469,1752.6002,4.862
555200.00,-0.008,0,0,360.37,1753.5604,4.866
555400.00,-0.007,0,0,360.333,1753.3805,4.866
555600.00,0.001,0,0,364.406,1771.7419,4.862
555800.00,-0.012,0,0,367.281,1783.5166,4.856
556000.00,0.011,0,0,312.387,1530.0714,4.898
556200.00,-0.006,0,0,371.416,1805.0818,4.86
556400.00,-0.017,0,0,362.253,1761.9985,4.864
556600.00,0,0,0,363.654,1768.0857,4.862
556800.00,0.016,0,0,314.83,1540.778,4.894
557000.00,0.012,0,0,362.828,1763.3441,4.86
557200.00,0.001,0,0,362.877,1763.5824,4.86
557400.00,-0.004,0,0,366.141,1780.9097,4.864
557600.00,0.006,0,0,359.723,1748.9731,4.862
557800.00,0.009,0,0,370.337,1798.3564,4.856
558000.00,0.004,0,0,311.812,1527.2551,4.898
558200.00,-0.005,0,0,362.919,1763.7864,4.86
558400.00,0.011,0,0,360.149,1751.0443,4.862
558600.00,-0.017,0,0,404.03,1953.0811,4.834
558800.00,-0.024,0,0,404.104,1952.6305,4.832
559000.00,0.001,0,0,404.679,1956.2183,4.834
559200.00,0.005,0,0,404.642,1955.2301,4.832
559400.00,-0.004,0,0,404.457,1954.3362,4.832
559600.00,-0.002,0,0,404.489,1954.4908,4.832
559800.00,0.001,0,0,404.761,1956.6146,4.834
560000.00,-0.001,0,0,404.502,1954.5536,4.832
560200.00,-0.006,0,0,563.506,2662.0022,4.724
560400.00,-0.01,0,0,404.502,1955.3628,4.834
560600.00,-0.005,0,0,404.642,1955.2301,4.832
560800.00,0.002,0,0,404.506,1954.573,4.832
561000.00,-0.003,0,0,405.222,1958.8431,4.834
561200.00,0,0,0,405.592,1959.0094,4.83
561400.00,0.014,0,0,404.864,1957.1127,4.834
561600.00,-0.001,0,0,445.617,2140.7441,4.804
561800.00,0.005,0,0,404.358,1953.0491,4.83
562000.00,-0.01,0,0,405.333,1957.7584,4.83
562200.00,-0.006,0,0,564.53,2662.3237,4.716
562400.00,0.007,0,0,404.711,1955.5635,4.832
562600.00,0.023,0,0,406.094,1962.2461,4.832
562800.00,0.013,0,0,405.057,1956.4253,4.83
563000.00,0.009,0,0,405.21,1957.9746,4.832
563200.00,-0.005,0,0,406.283,1961.5343,4.828
563400.00,0.002,0,0,404.593,1954.1841,4.83
563600.00,0.001,0,0,358.538,1743.9287,4.864
563800.00,0,0,0,429.244,2067.239,4.816
564000.00,-0.002,0,0,363.185,1766.5317,4.864
564200.00,0.003,0,0,362.766,1763.7682,4.862
564400.00,0,0,0,445.778,2139.7346,4.8
564600.00,0.02,0,0,360.71,1754.4933,4.864
564800.00,0.009,0,0,362.722,1764.2797,4.864
565000.00,-0.003,0,0,474.102,2268.1038,4.784
565200.00,0.006,0,0,362.655,1763.9539,4.864
565400.00,0.003,0,0,360.112,1750.8645,4.862
565600.00,-0.001,0,0,370.055,1796.9871,4.856
565800.00,-0.01,0,0,359.502,1747.1798,4.86
566000.00,0,0,0,432.609,2079.9841,4.808
566200.00,-0.005,0,0,362.865,1763.5239,4.86
566400.00,-0.008,0,0,363.506,1766.6393,4.86
566600.00,-0.025,0,0,367.635,1777.8829,4.836
566800.00,0.002,0,0,313.861,1536.0358,4.894
567000.00,-0.002,0,0,388.852,1881.2659,4.838
567200.00,0.016,0,0,364.901,1772.689,4.858
567400.00,-0.001,0,0,312.435,1529.0569,4.894
567600.00,-0.003,0,0,362.734,1763.6128,4.862
567800.00,0.011,0,0,363.401,1766.1289,4.86
568000.00,-0.005,0,0,365.017,1773.2526,4.858
568200.00,-0.014,0,0,362.487,1761.6869,4.86
568400.00,0.006,0,0,314.503,1539.1776,4.894
568600.00,0.02,0,0,362.673,1762.5908,4.86
568800.00,0.016,0,0,365.252,1776.5857,4.864
569000.00,-0.004,0,0,312.559,1530.2888,4.896
569200.00,0.006,0,0,362.444,1762.2028,4.862
569400.00,-0.005,0,0,362.47,1761.6042,4.86
569600.00,0.011,0,0,403.025,1947.4166,4.832
569800.00,0.01,0,0,360.594,1753.208,4.862
570000.00,-0.015,0,0,312.127,1529.4224,4.9
570200.00,-0.015,0,0,362.419,1761.3564,4.86
570400.00,0.003,0,0,362.641,1762.4353,4.86
570600.00,0.012,0,0,360.284,1752.4213,4.864
570800.00,0.003,0,0,365.171,1775.4613,4.862
571000.00,0,0,0,312.22,1529.2535,4.898
571200.00,-0.004,0,0,362.808,1763.9725,4.862
571400.00,0.017,0,0,362.413,1762.052,4.862
571600.00,0.001,0,0,360.068,1751.3706,4.864
571800.00,-0.006,0,0,363.487,1765.8198,4.858
572000.00,0.012,0,0,410.583,1983.1158,4.83
572200.00,-0.007,0,0,365.03,1774.0459,4.86
572400.00,-0.004,0,0,312.17,1528.3844,4.896
572600.00,0.001,0,0,404.659,1957.7401,4.838
572800.00,-0.01,0,0,369.535,1795.2009,4.858
573000.00,0.009,0,0,405.254,1958.1873,4.832
573200.00,-0.001,0,0,404.6,1955.0271,4.832
573400.00,0.021,0,0,404.378,1953.1456,4.83
573600.00,-0.004,0,0,404.798,1956.7936,4.834
573800.00,0.012,0,0,404.452,1955.121,4.834
574000.00,0.001,0,0,404.25,1951.719,4.828
574200.00,0,0,0,563.985,2660.8811,4.718
574400.00,0.015,0,0,403.996,1951.3007,4.83
574600.00,-0.008,0,0,404.995,1956.1259,4.83
574800.00,-0.003,0,0,404.168,1953.7482,4.834
575000.00,-0.002,0,0,405.316,1959.2976,4.834
575200.00,0.009,0,0,405.02,1957.8667,4.834
575400.00,0.001,0,0,405.074,1956.5074,4.83
575600.00,0.006,0,0,405.197,1957.9117,4.832
575800.00,0.009,0,0,405.469,1958.4152,4.83
576000.00,0.01,0,0,405.548,1959.6079,4.832
576200.00,-0.004,0,0,443.313,2137.6553,4.822
576400.00,-0.013,0,0,565.607,2670.7964,4.722
576600.00,-0.012,0,0,404.955,1955.9325,4.83
576800.00,-0.009,0,0,405.153,1956.889,4.83
577000.00,-0.002,0,0,405.321,1959.3218,4.834
577200.00,0.016,0,0,404.79,1955.9452,4.832
577400.00,-0.001,0,0,405.079,1956.5316,4.83
577600.00,0.016,0,0,404.733,1956.4794,4.834
577800.00,0.012,0,0,404.499,1954.5391,4.832
578000.00,-0.003,0,0,407.075,1965.3582,4.828
578200.00,-0.022,0,0,312.677,1530.2412,4.894
578400.00,0.001,0,0,405.347,1958.6366,4.832
578600.00,-0.013,0,0,404.952,1955.1083,4.828
578800.00,0.022,0,0,405.285,1958.337,4.832
579000.00,-0.016,0,0,404.624,1953.5247,4.828
579200.00,-0.001,0,0,405.228,1957.2512,4.83
579400.00,0.002,0,0,405.619,1959.1396,4.83
579600.00,0.025,0,0,581.802,2768.2139,4.758
579800.00,0,0,0,562.994,2658.4578,4.722
580000.00,-0.003,0,0,404.853,1955.4399,4.83
580200.00,-0.005,0,0,404.952,1956.7279,4.832
580400.00,-0.028,0,0,405.194,1957.8973,4.832
580600.00,0.007,0,0,404.873,1955.5365,4.83
580800.00,-0.008,0,0,446.23,2142.7966,4.802
581000.00,-0.007,0,0,407.238,1966.1451,4.828
581200.00,-0.005,0,0,405.017,1956.2321,4.83
581400.00,0.018,0,0,405.498,1958.5553,4.83
581600.00,0.001,0,0,405.19,1957.8781,4.832
581800.00,-0.006,0,0,568.336,2681.4092,4.718
582000.00,0.005,0,0,406.885,1964.4408,4.828
582200.00,-0.007,0,0,405.441,1959.0908,4.832
582400.00,-0.009,0,0,405.444,1959.1053,4.832
582600.00,-0.01,0,0,404.741,1954.8989,4.83
582800.00,0.005,0,0,405.333,1959.3798,4.834
583000.00,-0.013,0,0,406.246,1962.1682,4.83
583200.00,0.014,0,0,410.702,1982.048,4.826
583400.00,0.011,0,0,364.376,1771.5962,4.862
583600.00,-0.003,0,0,312.886,1531.8898,4.896
583800.00,-0.004,0,0,312.497,1529.3604,4.894
584000.00,0.008,0,0,362.865,1763.5239,4.86
584200.00,0.001,0,0,312.732,1531.7612,4.898
584400.00,0.006,0,0,564.459,2661.9885,4.716
584600.00,0.019,0,0,404.696,1954.6818,4.83
584800.00,0.012,0,0,404.259,1952.5709,4.83
585000.00,-0.008,0,0,405.839,1961.0139,4.832
585200.00,-0.005,0,0,404.741,1954.8989,4.83
585400.00,-0.017,0,0,405.239,1958.9254,4.834
585600.00,0.002,0,0,404.745,1955.7278,4.832
585800.00,0,0,0,405.757,1961.4293,4.834
586000.00,0.002,0,0,404.708,1955.549,4.832
586200.00,0.004,0,0,404.77,1955.8485,4.832
586400.00,-0.007,0,0,483.14,2322.9373,4.808
586600.00,-0.007,0,0,565.052,2667.0454,4.72
586800.00,0.008,0,0,404.56,1954.0248,4.83
587000.00,0,0,0,405.387,1958.0192,4.83
587200.00,-0.003,0,0,449.077,2154.6714,4.798
587400.00,0.002,0,0,405.964,1960.806,4.83
587600.00,0.004,0,0,405.528,1957.8893,4.828
587800.00,0.003,0,0,405.379,1958.7913,4.832
588000.00,0.023,0,0,405.059,1955.6249,4.828
588200.00,-0.003,0,0,405.7,1960.3424,4.832
588400.00,0.01,0,0,404.923,1954.9683,4.828
588600.00,-0.004,0,0,565.362,2667.3779,4.718
588800.00,0.002,0,0,405.359,1957.884,4.83
589000.00,0.011,0,0,447.023,2147.4985,4.804
589200.00,0.012,0,0,405.088,1956.5751,4.83
589400.00,0.002,0,0,405.367,1959.5442,4.834
589600.00,0.016,0,0,404.989,1956.0969,4.83
589800.00,-0.001,0,0,405.705,1960.3665,4.832
590000.00,0.01,0,0,405.639,1959.2363,4.83
590200.00,0.024,0,0,404.898,1956.467,4.832
590400.00,0.011,0,0,565.496,2670.272,4.722
590600.00,0.003,0,0,405.207,1957.1498,4.83
590800.00,-0.037,0,0,405.389,1958.0289,4.83
591000.00,-0.004,0,0,405.401,1958.8976,4.832
591200.00,0.005,0,0,405.389,1959.6505,4.834
591400.00,0.027,0,0,405.398,1959.694,4.834
591600.00,0.001,0,0,405.443,1959.1005,4.832
591800.00,-0.013,0,0,445.904,2141.231,4.802
592000.00,-0.013,0,0,405.253,1957.3719,4.83
592200.00,-0.007,0,0,405.302,1958.4192,4.832
592400.00,0.005,0,0,564.464,2665.3989,4.722
592600.00,0,0,0,405.204,1958.7562,4.834
592800.00,-0.009,0,0,404.801,1955.1887,4.83
593000.00,-0.008,0,0,405.727,1960.4728,4.832
593200.00,0.01,0,0,405.06,1957.2499,4.832
593400.00,-0.008,0,0,404.599,1954.2131,4.83
593600.00,-0.009,0,0,405.072,1957.3077,4.832
593800.00,0.004,0,0,404.813,1956.0563,4.832
594000.00,0.003,0,0,405.623,1960.7816,4.834
594200.00,-0.013,0,0,447.369,2154.5291,4.816
594400.00,-0.008,0,0,411.036,1985.304,4.83
594600.00,-0.014,0,0,370.508,1798.4458,4.854
594800.00,-0.002,0,0,312.424,1529.6279,4.896
595000.00,0.008,0,0,363.184,1765.0742,4.86
595200.00,0.014,0,0,419.733,2022.2736,4.818
595400.00,0.011,0,0,360.827,1754.3408,4.862
595600.00,0,0,0,405.133,1956.7924,4.83
595800.00,0.012,0,0,404.767,1955.8341,4.832
596000.00,0,0,0,404.31,1953.6259,4.832
596200.00,-0.01,0,0,405.565,1960.5012,4.834
596400.00,0.005,0,0,313.781,1535.6443,4.894
596600.00,0.012,0,0,361.197,1755.4175,4.86
596800.00,0.011,0,0,356.082,1733.4072,4.868
597000.00,0.012,0,0,355.693,1731.5135,4.868
597200.00,-0.002,0,0,356.803,1735.4897,4.864
597400.00,-0.006,0,0,410.501,1982.7198,4.83
597600.00,0,0,0,355.878,1731.7024,4.866
597800.00,0.003,0,0,356.131,1732.2212,4.864
598000.00,-0.007,0,0,355.625,1730.4713,4.866
598200.00,-0.002,0,0,408.352,1970.7068,4.826
598400.00,-0.009,0,0,358.589,1743.4597,4.862
598600.00,0.012,0,0,355.818,1732.8336,4.87
598800.00,0.03,0,0,314.268,1538.6561,4.896
599000.00,-0.008,0,0,366.518,1782.0105,4.862
599200.00,-0.004,0,0,321.791,1575.4886,4.896
599400.00,0.004,0,0,314.953,1542.6398,4.898
599600.00,0,0,0,315.151,1542.9792,4.896
599800.00,-0.009,0,0,404.585,1955.7639,4.834
600000.00,-0.001,0,0,453.236,2173.7197,4.796
600200.00,-0.017,0,0,565.322,2666.0586,4.716
600400.00,-0.015,0,0,405.543,1960.3949,4.834
600600.00,0.006,0,0,360.717,1753.8062,4.862
600800.00,-0.007,0,0,312.67,1529.5818,4.892
601000.00,-0.007,0,0,363.074,1765.9919,4.864
601200.00,-0.004,0,0,368.709,1791.1884,4.858
601400.00,0.001,0,0,449.797,2160.8247,4.804
601600.00,0,0,0,365.537,1777.2408,4.862
601800.00,0.035,0,0,448.835,2155.3057,4.802
602000.00,-0.001,0,0,404.971,1956.0099,4.83
602200.00,0.019,0,0,404.568,1954.0634,4.83
602400.00,0,0,0,405.185,1957.0435,4.83
602600.00,0.008,0,0,405.123,1958.3645,4.834
602800.00,0.011,0,0,405.14,1957.6365,4.832
603000.00,0.016,0,0,563.065,2658.793,4.722
603200.00,0.012,0,0,405.157,1956.0981,4.828
603400.00,0.018,0,0,406.478,1964.1016,4.832
603600.00,-0.011,0,0,405.194,1957.8973,4.832
603800.00,0,0,0,404.873,1955.5365,4.83
604000.00,-0.003,0,0,404.701,1953.8964,4.828
604200.00,-0.004,0,0,405.194,1957.8973,4.832
604400.00,-0.007,0,0,405.478,1960.0807,4.834
604600.00,-0.039,0,0,405.231,1958.076,4.832
604800.00,0.011,0,0,405.626,1959.9847,4.832
605000.00,-0.016,0,0,565.732,2671.3865,4.722
605200.00,-0.002,0,0,405.463,1959.1971,4.832
605400.00,0.011,0,0,405.068,1956.4784,4.83
605600.00,-0.007,0,0,405.636,1960.8444,4.834
605800.00,-0.002,0,0,405.137,1956.0015,4.828
606000.00,-0.01,0,0,405.421,1959.8051,4.834
606200.00,-0.006,0,0,405.011,1955.3931,4.828
606400.00,-0.007,0,0,407.8,1969.674,4.83
606600.00,0.016,0,0,404.937,1956.6555,4.832
606800.00,0.007,0,0,439.281,2112.0632,4.808
607000.00,0.002,0,0,359.202,1746.4401,4.862
607200.00,0.014,0,0,365.298,1775.3484,4.86
607400.00,0.024,0,0,405.899,1960.4921,4.83
607600.00,-0.011,0,0,404.303,1954.4008,4.834
607800.00,-0.001,0,0,404.29,1952.7207,4.83
608000.00,-0.012,0,0,407.462,1968.0415,4.83
608200.00,0.004,0,0,609.114,2854.3081,4.686
608400.00,-0.002,0,0,405.537,1959.5547,4.832
608600.00,0.002,0,0,405.253,1958.1824,4.832
608800.00,-0.008,0,0,451.347,2164.6602,4.796
609000.00,-0.003,0,0,404.957,1955.9423,4.83
609200.00,0.009,0,0,405.068,1957.2885,4.832
609400.00,-0.001,0,0,404.969,1955.1903,4.828
609600.00,-0.01,0,0,404.455,1954.3264,4.832
609800.00,-0.001,0,0,405.566,1960.5061,4.834
610000.00,-0.012,0,0,405.245,1958.9543,4.834
610200.00,-0.012,0,0,564.663,2666.3389,4.722
610400.00,0.011,0,0,405.105,1957.4673,4.832
610600.00,0.006,0,0,404.85,1956.2351,4.832
610800.00,0.02,0,0,405.455,1958.3475,4.83
611000.00,-0.001,0,0,445.6,2139.7712,4.802
611200.00,-0.023,0,0,404.969,1956.0002,4.83
611400.00,0,0,0,405.443,1959.1005,4.832
611600.00,0.006,0,0,405.754,1960.6033,4.832
611800.00,0.006,0,0,405.545,1958.7823,4.83
612000.00,0.011,0,0,405.15,1956.8744,4.83
612200.00,0.008,0,0,561.848,2651.9226,4.72
612400.00,-0.012,0,0,409.881,1979.7252,4.83
612600.00,-0.007,0,0,358.431,1744.1254,4.866
612800.00,0,0,0,362.442,1762.193,4.862
613000.00,0,0,0,362.757,1762.999,4.86
613200.00,-0.011,0,0,360.74,1753.1964,4.86
613400.00,-0.003,0,0,419.379,2021.4069,4.82
613600.00,-0.009,0,0,360.832,1755.8086,4.866
613800.00,0.013,0,0,368.928,1792.9901,4.86
614000.00,-0.002,0,0,363.338,1766.5494,4.862
614200.00,-0.026,0,0,360.74,1754.6393,4.864
614400.00,-0.01,0,0,360.419,1751.6365,4.86
614600.00,0.017,0,0,312.362,1528.6996,4.894
614800.00,0.002,0,0,364.196,1769.9927,4.86
615000.00,0,0,0,362.937,1763.8739,4.86
615200.00,0.009,0,0,360.735,1753.8936,4.862
615400.00,-0.001,0,0,364.302,1769.7791,4.858
615600.00,0.005,0,0,312.386,1528.817,4.894
615800.00,-0.006,0,0,363.074,1764.5397,4.86
616000.00,-0.021,0,0,362.679,1761.8944,4.858
616200.00,0,0,0,359.959,1750.8406,4.864
616400.00,0.003,0,0,408.969,1976.9562,4.834
616600.00,-0.002,0,0,365.271,1775.217,4.86
616800.00,-0.009,0,0,360.569,1753.8076,4.864
617000.00,0.002,0,0,360.692,1753.6844,4.862
617200.00,0.022,0,0,360.415,1752.3378,4.862
617400.00,0.003,0,0,361.329,1756.7816,4.862
617600.00,-0.008,0,0,365.271,1774.4865,4.858
617800.00,-0.014,0,0,365.382,1775.0256,4.858
618000.00,0.004,0,0,312.497,1529.9854,4.896
618200.00,-0.024,0,0,363.321,1765.7402,4.86
618400.00,0.008,0,0,404.494,1954.5149,4.832
618600.00,0.009,0,0,404.63,1953.5537,4.828
618800.00,0,0,0,405.333,1958.569,4.832
619000.00,-0.002,0,0,404.667,1956.1603,4.834
619200.00,0.009,0,0,446.173,2142.5227,4.802
619400.00,-0.003,0,0,404.914,1957.3544,4.834
619600.00,-0.002,0,0,404.63,1955.1721,4.832
619800.00,0,0,0,404.914,1955.7346,4.83
620000.00,-0.021,0,0,565.854,2668.5676,4.716
620200.00,0.015,0,0,546.082,2580.7832,4.726
620400.00,0.005,0,0,405.325,1958.5304,4.832
620600.00,0.005,0,0,405.362,1957.8984,4.83
620800.00,0.003,0,0,408.448,1972.8038,4.83
621000.00,0.003,0,0,405,1957.77,4.834
621200.00,-0.002,0,0,405.21,1957.9746,4.832
621400.00,0.019,0,0,405.049,1956.3867,4.83
621600.00,0.001,0,0,449.48,2158.4031,4.802
621800.00,-0.005,0,0,405.321,1957.7004,4.83
622000.00,-0.004,0,0,405.955,1960.7626,4.83
622200.00,0.008,0,0,564.484,2662.1067,4.716
622400.00,0,0,0,404.716,1954.7783,4.83
622600.00,-0.002,0,0,405.881,1962.0288,4.834
622800.00,-0.004,0,0,405.202,1957.9359,4.832
623000.00,0.013,0,0,405.116,1956.7102,4.83
623200.00,-0.008,0,0,408.102,1970.3164,4.828
623400.00,0.001,0,0,401.179,1940.1016,4.836
623600.00,-0.002,0,0,429.959,2071.5425,4.818
623800.00,0.003,0,0,363.27,1766.2186,4.862
624000.00,-0.001,0,0,362.616,1762.3138,4.86
624200.00,0.017,0,0,360.876,1754.5791,4.862
624400.00,0.001,0,0,360.888,1753.9158,4.86
624600.00,-0.023,0,0,360.204,1752.0322,4.864
624800.00,0.006,0,0,365.622,1777.6542,4.862
625000.00,-0.013,0,0,312.812,1531.5276,4.896
625200.00,-0.002,0,0,365.746,1777.5256,4.86
625400.00,0,0,0,366.079,1777.6797,4.856
625600.00,-0.012,0,0,360.71,1753.0507,4.86
625800.00,-0.002,0,0,312.689,1530.9253,4.896
626000.00,-0.005,0,0,363.214,1765.2201,4.86
626200.00,0.003,0,0,366.114,1779.3142,4.86
626400.00,0.015,0,0,360.684,1753.6455,4.862
626600.00,0.005,0,0,360.721,1753.1041,4.86
626800.00,-0.012,0,0,312.701,1530.3586,4.894
627000.00,0,0,0,412.406,1991.921,4.83
627200.00,0.015,0,0,354.945,1728.5822,4.87
627400.00,0.018,0,0,446.271,2142.9934,4.802
627600.00,0.022,0,0,402.965,1947.1268,4.832
627800.00,0.019,0,0,354.143,1722.5515,4.864
628000.00,0.006,0,0,406.89,1966.0924,4.832
628200.00,-0.018,0,0,405.569,1960.5206,4.834
628400.00,-0.003,0,0,402.842,1946.5325,4.832
628600.00,0,0,0,403.032,1946.6445,4.83
628800.00,0.001,0,0,354.729,1725.4019,4.864
629000.00,-0.014,0,0,363.059,1764.4668,4.86
629200.00,0.015,0,0,370.414,1798.7303,4.856
629400.00,0.003,0,0,405.117,1958.3357,4.834
629600.00,-0.003,0,0,565.97,2673.6421,4.724
629800.00,-0.008,0,0,404.167,1954.5515,4.836
630000.00,-0.002,0,0,405.302,1958.4192,4.832
630200.00,0.016,0,0,405.068,1955.6683,4.828
630400.00,0,0,0,404.587,1954.1552,4.83
630600.00,0,0,0,404.73,1954.0365,4.828
630800.00,0.012,0,0,405.384,1959.6263,4.834
631000.00,-0.01,0,0,454.086,2176.8884,4.794
631200.00,0.006,0,0,405.327,1959.3507,4.834
631400.00,-0.002,0,0,405.327,1957.7294,4.83
631600.00,-0.015,0,0,424.591,2049.9253,4.828
631800.00,-0.026,0,0,564.39,2663.9207,4.72
632000.00,0.008,0,0,447.69,2148.9121,4.8
632200.00,-0.002,0,0,448.27,2151.696,4.8
632400.00,0.023,0,0,448.072,2150.7456,4.8
632600.00,-0.024,0,0,448.291,2151.7969,4.8
632800.00,0.001,0,0,448.99,2156.05,4.802
633000.00,0.015,0,0,448.221,2152.3574,4.802
633200.00,0.012,0,0,450.171,2161.7212,4.802
633400.00,-0.003,0,0,448.246,2151.5808,4.8
633600.00,0.028,0,0,448.666,2153.5969,4.8
633800.00,-0.006,0,0,613.245,2869.9866,4.68
634000.00,0.008,0,0,405.548,1959.6079,4.832
634200.00,0.006,0,0,406.078,1961.3567,4.83
634400.00,-0.017,0,0,449.373,2157.8892,4.802
634600.00,-0.001,0,0,359.032,1745.6136,4.862
634800.00,0,0,0,363.425,1765.5186,4.858
635000.00,0.028,0,0,433.703,2084.3767,4.806
635200.00,0.01,0,0,420.782,2029.0109,4.822
635400.00,-0.014,0,0,360.363,1752.8057,4.864
635600.00,-0.01,0,0,408.445,1971.9725,4.828
635800.00,0.016,0,0,313.121,1533.0404,4.896
636000.00,0.024,0,0,431.35,2078.2441,4.818
636200.00,0.004,0,0,364.016,1769.1178,4.86
636400.00,-0.008,0,0,363.392,1766.8119,4.862
636600.00,0.008,0,0,365.873,1777.4109,4.858
636800.00,0.011,0,0,365.577,1776.7042,4.86
637000.00,0.007,0,0,360.813,1754.9943,4.864
637200.00,-0.001,0,0,419.865,2023.7493,4.82
637400.00,-0.005,0,0,360.806,1754.2388,4.862
637600.00,-0.003,0,0,363.287,1766.3013,4.862
637800.00,-0.012,0,0,312.393,1528.8514,4.894
638000.00,0.012,0,0,363.946,1769.5055,4.862
638200.00,0,0,0,430.515,2073.3604,4.816
638400.00,0.002,0,0,402.947,1947.0398,4.832
638600.00,0.015,0,0,376.748,1824.2137,4.842
638800.00,0,0,0,312.641,1530.6903,4.896
639000.00,-0.001,0,0,362.749,1763.6855,4.862
639200.00,0.001,0,0,312.338,1529.8315,4.898
639400.00,0.008,0,0,362.947,1765.3741,4.864
639600.00,0.007,0,0,367.883,1787.9114,4.86
639800.00,0,0,0,312.77,1532.573,4.9
640000.00,-0.012,0,0,426.299,2052.2036,4.814
640200.00,-0.004,0,0,363.213,1765.2153,4.86
640400.00,0.031,0,0,368.181,1789.3597,4.86
640600.00,0.016,0,0,312.325,1529.7678,4.898
640800.00,0.013,0,0,312.276,1528.9033,4.896
641000.00,0.011,0,0,430.178,2073.458,4.82
641200.00,0.004,0,0,362.548,1761.9834,4.86
641400.00,0,0,0,365.455,1775.3802,4.858
641600.00,-0.005,0,0,312.695,1531.5801,4.898
641800.00,0.001,0,0,312.609,1530.5337,4.896
642000.00,0.007,0,0,427.174,2056.4158,4.814
642200.00,-0.009,0,0,362.851,1763.4559,4.86
642400.00,0.022,0,0,362.561,1762.7716,4.862
642600.00,0,0,0,369.979,1797.3579,4.858
642800.00,0,0,0,312.195,1528.5067,4.896
643000.00,0.015,0,0,429.429,2067.2712,4.814
643200.00,-0.018,0,0,366.116,1780.056,4.862
643400.00,0.005,0,0,360.402,1753.7162,4.866
643600.00,0.01,0,0,360.574,1753.8319,4.864
643800.00,-0.012,0,0,403.524,1950.635,4.834
644000.00,0.007,0,0,406.769,1963.8809,4.828
644200.00,0,0,0,361.204,1756.8962,4.864
644400.00,0.01,0,0,408.403,1971.7698,4.828
644600.00,-0.011,0,0,363.196,1765.859,4.862
644800.00,-0.008,0,0,365.381,1775.0209,4.858
645000.00,0.015,0,0,438.097,2104.6179,4.804
645200.00,-0.003,0,0,370.626,1801.2424,4.86
645400.00,-0.003,0,0,405.108,1957.4818,4.832
645600.00,0.01,0,0,451.166,2165.5969,4.8
645800.00,0.009,0,0,405.145,1957.6605,4.832
646000.00,0,0,0,404.775,1955.0632,4.83
646200.00,-0.019,0,0,406.811,1964.0836,4.828
646400.00,0.015,0,0,404.935,1955.0262,4.828
646600.00,-0.002,0,0,609.668,2858.1238,4.688
646800.00,-0.006,0,0,404.997,1956.1355,4.83
647000.00,0.01,0,0,405.034,1956.3142,4.83
647200.00,0,0,0,404.836,1956.9773,4.834
647400.00,-0.013,0,0,404.836,1955.3578,4.83
647600.00,0.003,0,0,405.392,1958.0433,4.83
647800.00,-0.019,0,0,404.404,1954.8889,4.834
648000.00,0.004,0,0,404.836,1956.1675,4.832
648200.00,0.001,0,0,406.182,1962.6714,4.832
648400.00,-0.004,0,0,405.214,1957.1836,4.83
648600.00,-0.002,0,0,565.977,2673.6753,4.724
648800.00,-0.009,0,0,404.412,1954.1187,4.832
649000.00,0.005,0,0,405.708,1959.5697,4.83
649200.00,0,0,0,408.078,1970.2007,4.828
649400.00,0,0,0,404.926,1956.6023,4.832
649600.00,0,0,0,405.308,1958.4482,4.832
649800.00,-0.008,0,0,405.543,1960.3949,4.834
650000.00,0.007,0,0,405.049,1956.3867,4.83
650200.00,0.008,0,0,405,1956.96,4.832
650400.00,0.008,0,0,408.184,1970.7123,4.828
